Press (GPa)	Temp (K)	Density (g/cm^-3)	dT/dP (K/GPa)
0.18	200	1.1627	20.101
0.18	201.22	1.1625	20.248
0.18	202.45	1.1622	20.396
0.18	203.67	1.1619	20.545
0.18	204.9	1.1617	20.695
0.18	206.12	1.1614	20.846
0.18	207.35	1.1612	20.997
0.18	208.57	1.1609	21.149
0.18	209.8	1.1606	21.302
0.18	211.02	1.1604	21.455
0.18	212.24	1.1601	21.608
0.18	213.47	1.1598	21.762
0.18	214.69	1.1596	21.915
0.18	215.92	1.1593	22.069
0.18	217.14	1.159	22.222
0.18	218.37	1.1587	22.376
0.18	219.59	1.1584	22.53
0.18	220.82	1.1582	22.684
0.18	222.04	1.1579	22.838
0.18	223.27	1.1576	22.993
0.18	224.49	1.1573	23.149
0.18	225.71	1.157	23.305
0.18	226.94	1.1567	23.463
0.18	228.16	1.1565	23.621
0.18	229.39	1.1562	23.78
0.18	230.61	1.1559	23.94
0.18	231.84	1.1556	24.102
0.18	233.06	1.1553	24.264
0.18	234.29	1.155	24.427
0.18	235.51	1.1547	24.592
0.18	236.73	1.1544	24.757
0.18	237.96	1.1541	24.924
0.18	239.18	1.1538	25.091
0.18	240.41	1.1535	25.26
0.18	241.63	1.1532	25.429
0.18	242.86	1.1529	25.599
0.18	244.08	1.1526	25.769
0.18	245.31	1.1522	25.941
0.18	246.53	1.1519	26.112
0.18	247.76	1.1516	26.284
0.18	248.98	1.1513	26.456
0.18	250.2	1.151	26.628
0.18	251.43	1.1507	26.799
0.18	252.65	1.1504	26.97
0.18	253.88	1.15	27.14
0.18	255.1	1.1497	27.31
0.18	256.33	1.1494	27.478
0.18	257.55	1.1491	27.644
0.18	258.78	1.1487	27.809
0.18	260	1.1484	27.972
0.18449	200	1.1633	20.04
0.18449	201.22	1.163	20.187
0.18449	202.45	1.1628	20.334
0.18449	203.67	1.1625	20.483
0.18449	204.9	1.1622	20.632
0.18449	206.12	1.162	20.782
0.18449	207.35	1.1617	20.933
0.18449	208.57	1.1614	21.085
0.18449	209.8	1.1612	21.237
0.18449	211.02	1.1609	21.389
0.18449	212.24	1.1606	21.542
0.18449	213.47	1.1604	21.694
0.18449	214.69	1.1601	21.847
0.18449	215.92	1.1598	22
0.18449	217.14	1.1596	22.153
0.18449	218.37	1.1593	22.306
0.18449	219.59	1.159	22.459
0.18449	220.82	1.1587	22.613
0.18449	222.04	1.1584	22.767
0.18449	223.27	1.1582	22.921
0.18449	224.49	1.1579	23.077
0.18449	225.71	1.1576	23.232
0.18449	226.94	1.1573	23.389
0.18449	228.16	1.157	23.547
0.18449	229.39	1.1567	23.706
0.18449	230.61	1.1564	23.865
0.18449	231.84	1.1561	24.026
0.18449	233.06	1.1558	24.188
0.18449	234.29	1.1555	24.35
0.18449	235.51	1.1553	24.514
0.18449	236.73	1.155	24.679
0.18449	237.96	1.1547	24.845
0.18449	239.18	1.1544	25.012
0.18449	240.41	1.154	25.18
0.18449	241.63	1.1537	25.348
0.18449	242.86	1.1534	25.517
0.18449	244.08	1.1531	25.687
0.18449	245.31	1.1528	25.858
0.18449	246.53	1.1525	26.028
0.18449	247.76	1.1522	26.199
0.18449	248.98	1.1519	26.37
0.18449	250.2	1.1516	26.541
0.18449	251.43	1.1512	26.711
0.18449	252.65	1.1509	26.881
0.18449	253.88	1.1506	27.051
0.18449	255.1	1.1503	27.219
0.18449	256.33	1.15	27.386
0.18449	257.55	1.1496	27.551
0.18449	258.78	1.1493	27.715
0.18449	260	1.149	27.877
0.18898	200	1.1638	19.98
0.18898	201.22	1.1635	20.126
0.18898	202.45	1.1633	20.273
0.18898	203.67	1.163	20.421
0.18898	204.9	1.1628	20.57
0.18898	206.12	1.1625	20.719
0.18898	207.35	1.1623	20.87
0.18898	208.57	1.162	21.021
0.18898	209.8	1.1617	21.172
0.18898	211.02	1.1615	21.324
0.18898	212.24	1.1612	21.476
0.18898	213.47	1.1609	21.628
0.18898	214.69	1.1606	21.78
0.18898	215.92	1.1604	21.932
0.18898	217.14	1.1601	22.084
0.18898	218.37	1.1598	22.237
0.18898	219.59	1.1595	22.39
0.18898	220.82	1.1593	22.543
0.18898	222.04	1.159	22.696
0.18898	223.27	1.1587	22.85
0.18898	224.49	1.1584	23.005
0.18898	225.71	1.1581	23.16
0.18898	226.94	1.1579	23.316
0.18898	228.16	1.1576	23.473
0.18898	229.39	1.1573	23.631
0.18898	230.61	1.157	23.791
0.18898	231.84	1.1567	23.951
0.18898	233.06	1.1564	24.112
0.18898	234.29	1.1561	24.274
0.18898	235.51	1.1558	24.437
0.18898	236.73	1.1555	24.602
0.18898	237.96	1.1552	24.767
0.18898	239.18	1.1549	24.933
0.18898	240.41	1.1546	25.1
0.18898	241.63	1.1543	25.268
0.18898	242.86	1.154	25.437
0.18898	244.08	1.1537	25.606
0.18898	245.31	1.1534	25.775
0.18898	246.53	1.1531	25.945
0.18898	247.76	1.1528	26.115
0.18898	248.98	1.1524	26.285
0.18898	250.2	1.1521	26.455
0.18898	251.43	1.1518	26.625
0.18898	252.65	1.1515	26.793
0.18898	253.88	1.1512	26.962
0.18898	255.1	1.1509	27.129
0.18898	256.33	1.1505	27.295
0.18898	257.55	1.1502	27.459
0.18898	258.78	1.1499	27.622
0.18898	260	1.1496	27.782
0.19347	200	1.1643	19.92
0.19347	201.22	1.1641	20.066
0.19347	202.45	1.1638	20.212
0.19347	203.67	1.1636	20.36
0.19347	204.9	1.1633	20.508
0.19347	206.12	1.1631	20.657
0.19347	207.35	1.1628	20.806
0.19347	208.57	1.1625	20.957
0.19347	209.8	1.1623	21.108
0.19347	211.02	1.162	21.259
0.19347	212.24	1.1617	21.41
0.19347	213.47	1.1615	21.561
0.19347	214.69	1.1612	21.713
0.19347	215.92	1.1609	21.864
0.19347	217.14	1.1606	22.016
0.19347	218.37	1.1604	22.168
0.19347	219.59	1.1601	22.32
0.19347	220.82	1.1598	22.473
0.19347	222.04	1.1595	22.626
0.19347	223.27	1.1593	22.779
0.19347	224.49	1.159	22.933
0.19347	225.71	1.1587	23.088
0.19347	226.94	1.1584	23.244
0.19347	228.16	1.1581	23.4
0.19347	229.39	1.1578	23.558
0.19347	230.61	1.1575	23.717
0.19347	231.84	1.1573	23.876
0.19347	233.06	1.157	24.037
0.19347	234.29	1.1567	24.199
0.19347	235.51	1.1564	24.361
0.19347	236.73	1.1561	24.525
0.19347	237.96	1.1558	24.69
0.19347	239.18	1.1555	24.855
0.19347	240.41	1.1552	25.021
0.19347	241.63	1.1549	25.189
0.19347	242.86	1.1546	25.356
0.19347	244.08	1.1543	25.525
0.19347	245.31	1.154	25.693
0.19347	246.53	1.1536	25.862
0.19347	247.76	1.1533	26.032
0.19347	248.98	1.153	26.201
0.19347	250.2	1.1527	26.37
0.19347	251.43	1.1524	26.538
0.19347	252.65	1.1521	26.706
0.19347	253.88	1.1518	26.873
0.19347	255.1	1.1514	27.039
0.19347	256.33	1.1511	27.204
0.19347	257.55	1.1508	27.367
0.19347	258.78	1.1505	27.529
0.19347	260	1.1501	27.688
0.19796	200	1.1649	19.86
0.19796	201.22	1.1646	20.006
0.19796	202.45	1.1644	20.152
0.19796	203.67	1.1641	20.299
0.19796	204.9	1.1639	20.446
0.19796	206.12	1.1636	20.595
0.19796	207.35	1.1633	20.744
0.19796	208.57	1.1631	20.893
0.19796	209.8	1.1628	21.044
0.19796	211.02	1.1625	21.194
0.19796	212.24	1.1623	21.345
0.19796	213.47	1.162	21.495
0.19796	214.69	1.1617	21.646
0.19796	215.92	1.1615	21.797
0.19796	217.14	1.1612	21.948
0.19796	218.37	1.1609	22.1
0.19796	219.59	1.1606	22.251
0.19796	220.82	1.1604	22.403
0.19796	222.04	1.1601	22.556
0.19796	223.27	1.1598	22.709
0.19796	224.49	1.1595	22.862
0.19796	225.71	1.1592	23.017
0.19796	226.94	1.159	23.172
0.19796	228.16	1.1587	23.328
0.19796	229.39	1.1584	23.485
0.19796	230.61	1.1581	23.643
0.19796	231.84	1.1578	23.802
0.19796	233.06	1.1575	23.962
0.19796	234.29	1.1572	24.124
0.19796	235.51	1.1569	24.286
0.19796	236.73	1.1566	24.449
0.19796	237.96	1.1563	24.613
0.19796	239.18	1.156	24.778
0.19796	240.41	1.1557	24.943
0.19796	241.63	1.1554	25.11
0.19796	242.86	1.1551	25.277
0.19796	244.08	1.1548	25.444
0.19796	245.31	1.1545	25.612
0.19796	246.53	1.1542	25.78
0.19796	247.76	1.1539	25.949
0.19796	248.98	1.1536	26.117
0.19796	250.2	1.1533	26.285
0.19796	251.43	1.153	26.452
0.19796	252.65	1.1526	26.619
0.19796	253.88	1.1523	26.785
0.19796	255.1	1.152	26.95
0.19796	256.33	1.1517	27.114
0.19796	257.55	1.1514	27.276
0.19796	258.78	1.151	27.436
0.19796	260	1.1507	27.594
0.20245	200	1.1654	19.801
0.20245	201.22	1.1652	19.946
0.20245	202.45	1.1649	20.092
0.20245	203.67	1.1647	20.238
0.20245	204.9	1.1644	20.385
0.20245	206.12	1.1641	20.533
0.20245	207.35	1.1639	20.681
0.20245	208.57	1.1636	20.83
0.20245	209.8	1.1634	20.98
0.20245	211.02	1.1631	21.13
0.20245	212.24	1.1628	21.28
0.20245	213.47	1.1626	21.43
0.20245	214.69	1.1623	21.58
0.20245	215.92	1.162	21.73
0.20245	217.14	1.1617	21.881
0.20245	218.37	1.1615	22.032
0.20245	219.59	1.1612	22.183
0.20245	220.82	1.1609	22.334
0.20245	222.04	1.1606	22.486
0.20245	223.27	1.1604	22.639
0.20245	224.49	1.1601	22.792
0.20245	225.71	1.1598	22.946
0.20245	226.94	1.1595	23.1
0.20245	228.16	1.1592	23.256
0.20245	229.39	1.1589	23.413
0.20245	230.61	1.1587	23.57
0.20245	231.84	1.1584	23.729
0.20245	233.06	1.1581	23.889
0.20245	234.29	1.1578	24.049
0.20245	235.51	1.1575	24.211
0.20245	236.73	1.1572	24.373
0.20245	237.96	1.1569	24.537
0.20245	239.18	1.1566	24.701
0.20245	240.41	1.1563	24.866
0.20245	241.63	1.156	25.031
0.20245	242.86	1.1557	25.198
0.20245	244.08	1.1554	25.364
0.20245	245.31	1.1551	25.532
0.20245	246.53	1.1548	25.699
0.20245	247.76	1.1545	25.866
0.20245	248.98	1.1541	26.034
0.20245	250.2	1.1538	26.201
0.20245	251.43	1.1535	26.367
0.20245	252.65	1.1532	26.533
0.20245	253.88	1.1529	26.698
0.20245	255.1	1.1526	26.862
0.20245	256.33	1.1523	27.025
0.20245	257.55	1.1519	27.186
0.20245	258.78	1.1516	27.345
0.20245	260	1.1513	27.501
0.20694	200	1.1659	19.742
0.20694	201.22	1.1657	19.887
0.20694	202.45	1.1654	20.032
0.20694	203.67	1.1652	20.178
0.20694	204.9	1.1649	20.324
0.20694	206.12	1.1647	20.472
0.20694	207.35	1.1644	20.62
0.20694	208.57	1.1642	20.768
0.20694	209.8	1.1639	20.917
0.20694	211.02	1.1636	21.066
0.20694	212.24	1.1634	21.215
0.20694	213.47	1.1631	21.365
0.20694	214.69	1.1628	21.514
0.20694	215.92	1.1626	21.664
0.20694	217.14	1.1623	21.814
0.20694	218.37	1.162	21.964
0.20694	219.59	1.1617	22.115
0.20694	220.82	1.1615	22.266
0.20694	222.04	1.1612	22.417
0.20694	223.27	1.1609	22.569
0.20694	224.49	1.1606	22.722
0.20694	225.71	1.1603	22.875
0.20694	226.94	1.1601	23.03
0.20694	228.16	1.1598	23.185
0.20694	229.39	1.1595	23.341
0.20694	230.61	1.1592	23.498
0.20694	231.84	1.1589	23.656
0.20694	233.06	1.1586	23.815
0.20694	234.29	1.1583	23.975
0.20694	235.51	1.158	24.136
0.20694	236.73	1.1577	24.298
0.20694	237.96	1.1574	24.461
0.20694	239.18	1.1572	24.624
0.20694	240.41	1.1569	24.789
0.20694	241.63	1.1566	24.954
0.20694	242.86	1.1562	25.119
0.20694	244.08	1.1559	25.285
0.20694	245.31	1.1556	25.452
0.20694	246.53	1.1553	25.618
0.20694	247.76	1.155	25.785
0.20694	248.98	1.1547	25.951
0.20694	250.2	1.1544	26.117
0.20694	251.43	1.1541	26.283
0.20694	252.65	1.1538	26.447
0.20694	253.88	1.1535	26.611
0.20694	255.1	1.1531	26.774
0.20694	256.33	1.1528	26.936
0.20694	257.55	1.1525	27.095
0.20694	258.78	1.1522	27.253
0.20694	260	1.1519	27.409
0.21143	200	1.1665	19.684
0.21143	201.22	1.1662	19.828
0.21143	202.45	1.166	19.973
0.21143	203.67	1.1657	20.118
0.21143	204.9	1.1655	20.264
0.21143	206.12	1.1652	20.411
0.21143	207.35	1.165	20.558
0.21143	208.57	1.1647	20.706
0.21143	209.8	1.1644	20.854
0.21143	211.02	1.1642	21.002
0.21143	212.24	1.1639	21.151
0.21143	213.47	1.1636	21.3
0.21143	214.69	1.1634	21.449
0.21143	215.92	1.1631	21.598
0.21143	217.14	1.1628	21.748
0.21143	218.37	1.1626	21.897
0.21143	219.59	1.1623	22.047
0.21143	220.82	1.162	22.198
0.21143	222.04	1.1617	22.349
0.21143	223.27	1.1615	22.5
0.21143	224.49	1.1612	22.652
0.21143	225.71	1.1609	22.805
0.21143	226.94	1.1606	22.959
0.21143	228.16	1.1603	23.114
0.21143	229.39	1.16	23.27
0.21143	230.61	1.1598	23.426
0.21143	231.84	1.1595	23.584
0.21143	233.06	1.1592	23.742
0.21143	234.29	1.1589	23.902
0.21143	235.51	1.1586	24.062
0.21143	236.73	1.1583	24.224
0.21143	237.96	1.158	24.386
0.21143	239.18	1.1577	24.549
0.21143	240.41	1.1574	24.712
0.21143	241.63	1.1571	24.877
0.21143	242.86	1.1568	25.041
0.21143	244.08	1.1565	25.207
0.21143	245.31	1.1562	25.372
0.21143	246.53	1.1559	25.538
0.21143	247.76	1.1556	25.703
0.21143	248.98	1.1553	25.869
0.21143	250.2	1.155	26.034
0.21143	251.43	1.1547	26.199
0.21143	252.65	1.1543	26.362
0.21143	253.88	1.154	26.525
0.21143	255.1	1.1537	26.687
0.21143	256.33	1.1534	26.847
0.21143	257.55	1.1531	27.006
0.21143	258.78	1.1527	27.163
0.21143	260	1.1524	27.317
0.21592	200	1.167	19.626
0.21592	201.22	1.1668	19.77
0.21592	202.45	1.1665	19.914
0.21592	203.67	1.1663	20.059
0.21592	204.9	1.166	20.204
0.21592	206.12	1.1657	20.35
0.21592	207.35	1.1655	20.497
0.21592	208.57	1.1652	20.644
0.21592	209.8	1.165	20.792
0.21592	211.02	1.1647	20.939
0.21592	212.24	1.1644	21.088
0.21592	213.47	1.1642	21.236
0.21592	214.69	1.1639	21.384
0.21592	215.92	1.1636	21.533
0.21592	217.14	1.1634	21.682
0.21592	218.37	1.1631	21.831
0.21592	219.59	1.1628	21.98
0.21592	220.82	1.1626	22.13
0.21592	222.04	1.1623	22.281
0.21592	223.27	1.162	22.432
0.21592	224.49	1.1617	22.583
0.21592	225.71	1.1614	22.736
0.21592	226.94	1.1612	22.889
0.21592	228.16	1.1609	23.044
0.21592	229.39	1.1606	23.199
0.21592	230.61	1.1603	23.355
0.21592	231.84	1.16	23.512
0.21592	233.06	1.1597	23.67
0.21592	234.29	1.1594	23.829
0.21592	235.51	1.1591	23.989
0.21592	236.73	1.1589	24.15
0.21592	237.96	1.1586	24.311
0.21592	239.18	1.1583	24.474
0.21592	240.41	1.158	24.637
0.21592	241.63	1.1577	24.8
0.21592	242.86	1.1574	24.964
0.21592	244.08	1.1571	25.129
0.21592	245.31	1.1568	25.293
0.21592	246.53	1.1565	25.458
0.21592	247.76	1.1561	25.623
0.21592	248.98	1.1558	25.787
0.21592	250.2	1.1555	25.951
0.21592	251.43	1.1552	26.115
0.21592	252.65	1.1549	26.278
0.21592	253.88	1.1546	26.44
0.21592	255.1	1.1543	26.6
0.21592	256.33	1.154	26.76
0.21592	257.55	1.1536	26.917
0.21592	258.78	1.1533	27.073
0.21592	260	1.153	27.226
0.22041	200	1.1675	19.569
0.22041	201.22	1.1673	19.712
0.22041	202.45	1.167	19.855
0.22041	203.67	1.1668	20
0.22041	204.9	1.1665	20.145
0.22041	206.12	1.1663	20.29
0.22041	207.35	1.166	20.436
0.22041	208.57	1.1658	20.583
0.22041	209.8	1.1655	20.73
0.22041	211.02	1.1652	20.877
0.22041	212.24	1.165	21.024
0.22041	213.47	1.1647	21.172
0.22041	214.69	1.1644	21.32
0.22041	215.92	1.1642	21.468
0.22041	217.14	1.1639	21.616
0.22041	218.37	1.1636	21.765
0.22041	219.59	1.1634	21.914
0.22041	220.82	1.1631	22.063
0.22041	222.04	1.1628	22.213
0.22041	223.27	1.1625	22.364
0.22041	224.49	1.1623	22.515
0.22041	225.71	1.162	22.667
0.22041	226.94	1.1617	22.82
0.22041	228.16	1.1614	22.974
0.22041	229.39	1.1611	23.129
0.22041	230.61	1.1609	23.284
0.22041	231.84	1.1606	23.441
0.22041	233.06	1.1603	23.598
0.22041	234.29	1.16	23.757
0.22041	235.51	1.1597	23.916
0.22041	236.73	1.1594	24.076
0.22041	237.96	1.1591	24.237
0.22041	239.18	1.1588	24.399
0.22041	240.41	1.1585	24.561
0.22041	241.63	1.1582	24.724
0.22041	242.86	1.1579	24.887
0.22041	244.08	1.1576	25.051
0.22041	245.31	1.1573	25.215
0.22041	246.53	1.157	25.379
0.22041	247.76	1.1567	25.543
0.22041	248.98	1.1564	25.706
0.22041	250.2	1.1561	25.87
0.22041	251.43	1.1558	26.032
0.22041	252.65	1.1555	26.194
0.22041	253.88	1.1552	26.355
0.22041	255.1	1.1548	26.514
0.22041	256.33	1.1545	26.673
0.22041	257.55	1.1542	26.829
0.22041	258.78	1.1539	26.983
0.22041	260	1.1536	27.136
0.2249	200	1.1681	19.511
0.2249	201.22	1.1678	19.654
0.2249	202.45	1.1676	19.797
0.2249	203.67	1.1673	19.941
0.2249	204.9	1.1671	20.085
0.2249	206.12	1.1668	20.23
0.2249	207.35	1.1666	20.376
0.2249	208.57	1.1663	20.522
0.2249	209.8	1.166	20.668
0.2249	211.02	1.1658	20.815
0.2249	212.24	1.1655	20.962
0.2249	213.47	1.1653	21.109
0.2249	214.69	1.165	21.256
0.2249	215.92	1.1647	21.403
0.2249	217.14	1.1644	21.551
0.2249	218.37	1.1642	21.699
0.2249	219.59	1.1639	21.848
0.2249	220.82	1.1636	21.997
0.2249	222.04	1.1634	22.146
0.2249	223.27	1.1631	22.296
0.2249	224.49	1.1628	22.447
0.2249	225.71	1.1625	22.599
0.2249	226.94	1.1622	22.751
0.2249	228.16	1.162	22.905
0.2249	229.39	1.1617	23.059
0.2249	230.61	1.1614	23.214
0.2249	231.84	1.1611	23.37
0.2249	233.06	1.1608	23.527
0.2249	234.29	1.1605	23.685
0.2249	235.51	1.1602	23.844
0.2249	236.73	1.16	24.003
0.2249	237.96	1.1597	24.164
0.2249	239.18	1.1594	24.325
0.2249	240.41	1.1591	24.486
0.2249	241.63	1.1588	24.648
0.2249	242.86	1.1585	24.811
0.2249	244.08	1.1582	24.974
0.2249	245.31	1.1579	25.137
0.2249	246.53	1.1576	25.3
0.2249	247.76	1.1573	25.463
0.2249	248.98	1.157	25.626
0.2249	250.2	1.1566	25.788
0.2249	251.43	1.1563	25.95
0.2249	252.65	1.156	26.111
0.2249	253.88	1.1557	26.271
0.2249	255.1	1.1554	26.429
0.2249	256.33	1.1551	26.586
0.2249	257.55	1.1548	26.741
0.2249	258.78	1.1544	26.895
0.2249	260	1.1541	27.046
0.22939	200	1.1686	19.455
0.22939	201.22	1.1684	19.597
0.22939	202.45	1.1681	19.739
0.22939	203.67	1.1679	19.883
0.22939	204.9	1.1676	20.027
0.22939	206.12	1.1673	20.171
0.22939	207.35	1.1671	20.316
0.22939	208.57	1.1668	20.461
0.22939	209.8	1.1666	20.607
0.22939	211.02	1.1663	20.753
0.22939	212.24	1.166	20.899
0.22939	213.47	1.1658	21.046
0.22939	214.69	1.1655	21.192
0.22939	215.92	1.1653	21.339
0.22939	217.14	1.165	21.486
0.22939	218.37	1.1647	21.634
0.22939	219.59	1.1644	21.782
0.22939	220.82	1.1642	21.93
0.22939	222.04	1.1639	22.079
0.22939	223.27	1.1636	22.229
0.22939	224.49	1.1634	22.38
0.22939	225.71	1.1631	22.531
0.22939	226.94	1.1628	22.683
0.22939	228.16	1.1625	22.836
0.22939	229.39	1.1622	22.99
0.22939	230.61	1.1619	23.144
0.22939	231.84	1.1617	23.3
0.22939	233.06	1.1614	23.456
0.22939	234.29	1.1611	23.614
0.22939	235.51	1.1608	23.772
0.22939	236.73	1.1605	23.931
0.22939	237.96	1.1602	24.091
0.22939	239.18	1.1599	24.251
0.22939	240.41	1.1596	24.412
0.22939	241.63	1.1593	24.573
0.22939	242.86	1.159	24.735
0.22939	244.08	1.1587	24.897
0.22939	245.31	1.1584	25.06
0.22939	246.53	1.1581	25.222
0.22939	247.76	1.1578	25.384
0.22939	248.98	1.1575	25.546
0.22939	250.2	1.1572	25.707
0.22939	251.43	1.1569	25.868
0.22939	252.65	1.1566	26.028
0.22939	253.88	1.1563	26.187
0.22939	255.1	1.156	26.344
0.22939	256.33	1.1556	26.5
0.22939	257.55	1.1553	26.655
0.22939	258.78	1.155	26.807
0.22939	260	1.1547	26.957
0.23388	200	1.1691	19.398
0.23388	201.22	1.1689	19.54
0.23388	202.45	1.1686	19.682
0.23388	203.67	1.1684	19.825
0.23388	204.9	1.1681	19.968
0.23388	206.12	1.1679	20.112
0.23388	207.35	1.1676	20.256
0.23388	208.57	1.1674	20.401
0.23388	209.8	1.1671	20.546
0.23388	211.02	1.1668	20.692
0.23388	212.24	1.1666	20.837
0.23388	213.47	1.1663	20.983
0.23388	214.69	1.1661	21.129
0.23388	215.92	1.1658	21.276
0.23388	217.14	1.1655	21.422
0.23388	218.37	1.1653	21.569
0.23388	219.59	1.165	21.717
0.23388	220.82	1.1647	21.865
0.23388	222.04	1.1644	22.013
0.23388	223.27	1.1642	22.163
0.23388	224.49	1.1639	22.313
0.23388	225.71	1.1636	22.463
0.23388	226.94	1.1633	22.615
0.23388	228.16	1.1631	22.767
0.23388	229.39	1.1628	22.921
0.23388	230.61	1.1625	23.075
0.23388	231.84	1.1622	23.23
0.23388	233.06	1.1619	23.386
0.23388	234.29	1.1616	23.543
0.23388	235.51	1.1613	23.701
0.23388	236.73	1.1611	23.859
0.23388	237.96	1.1608	24.018
0.23388	239.18	1.1605	24.178
0.23388	240.41	1.1602	24.338
0.23388	241.63	1.1599	24.499
0.23388	242.86	1.1596	24.66
0.23388	244.08	1.1593	24.821
0.23388	245.31	1.159	24.983
0.23388	246.53	1.1587	25.144
0.23388	247.76	1.1584	25.306
0.23388	248.98	1.1581	25.467
0.23388	250.2	1.1578	25.627
0.23388	251.43	1.1575	25.787
0.23388	252.65	1.1571	25.946
0.23388	253.88	1.1568	26.104
0.23388	255.1	1.1565	26.26
0.23388	256.33	1.1562	26.415
0.23388	257.55	1.1559	26.568
0.23388	258.78	1.1556	26.72
0.23388	260	1.1553	26.868
0.23837	200	1.1697	19.342
0.23837	201.22	1.1694	19.483
0.23837	202.45	1.1692	19.625
0.23837	203.67	1.1689	19.767
0.23837	204.9	1.1687	19.91
0.23837	206.12	1.1684	20.054
0.23837	207.35	1.1681	20.197
0.23837	208.57	1.1679	20.342
0.23837	209.8	1.1676	20.486
0.23837	211.02	1.1674	20.631
0.23837	212.24	1.1671	20.776
0.23837	213.47	1.1669	20.921
0.23837	214.69	1.1666	21.067
0.23837	215.92	1.1663	21.213
0.23837	217.14	1.1661	21.359
0.23837	218.37	1.1658	21.505
0.23837	219.59	1.1655	21.652
0.23837	220.82	1.1653	21.8
0.23837	222.04	1.165	21.948
0.23837	223.27	1.1647	22.096
0.23837	224.49	1.1644	22.246
0.23837	225.71	1.1642	22.396
0.23837	226.94	1.1639	22.547
0.23837	228.16	1.1636	22.699
0.23837	229.39	1.1633	22.852
0.23837	230.61	1.163	23.006
0.23837	231.84	1.1627	23.161
0.23837	233.06	1.1625	23.316
0.23837	234.29	1.1622	23.472
0.23837	235.51	1.1619	23.63
0.23837	236.73	1.1616	23.787
0.23837	237.96	1.1613	23.946
0.23837	239.18	1.161	24.105
0.23837	240.41	1.1607	24.265
0.23837	241.63	1.1604	24.425
0.23837	242.86	1.1601	24.585
0.23837	244.08	1.1598	24.746
0.23837	245.31	1.1595	24.907
0.23837	246.53	1.1592	25.067
0.23837	247.76	1.1589	25.228
0.23837	248.98	1.1586	25.388
0.23837	250.2	1.1583	25.548
0.23837	251.43	1.158	25.706
0.23837	252.65	1.1577	25.864
0.23837	253.88	1.1574	26.021
0.23837	255.1	1.1571	26.177
0.23837	256.33	1.1568	26.331
0.23837	257.55	1.1565	26.483
0.23837	258.78	1.1561	26.633
0.23837	260	1.1558	26.781
0.24286	200	1.1702	19.286
0.24286	201.22	1.1699	19.427
0.24286	202.45	1.1697	19.568
0.24286	203.67	1.1694	19.71
0.24286	204.9	1.1692	19.852
0.24286	206.12	1.1689	19.995
0.24286	207.35	1.1687	20.139
0.24286	208.57	1.1684	20.282
0.24286	209.8	1.1682	20.426
0.24286	211.02	1.1679	20.57
0.24286	212.24	1.1676	20.715
0.24286	213.47	1.1674	20.86
0.24286	214.69	1.1671	21.005
0.24286	215.92	1.1669	21.15
0.24286	217.14	1.1666	21.295
0.24286	218.37	1.1663	21.441
0.24286	219.59	1.1661	21.588
0.24286	220.82	1.1658	21.735
0.24286	222.04	1.1655	21.883
0.24286	223.27	1.1652	22.031
0.24286	224.49	1.165	22.18
0.24286	225.71	1.1647	22.33
0.24286	226.94	1.1644	22.48
0.24286	228.16	1.1641	22.632
0.24286	229.39	1.1639	22.784
0.24286	230.61	1.1636	22.938
0.24286	231.84	1.1633	23.092
0.24286	233.06	1.163	23.247
0.24286	234.29	1.1627	23.402
0.24286	235.51	1.1624	23.559
0.24286	236.73	1.1621	23.716
0.24286	237.96	1.1619	23.874
0.24286	239.18	1.1616	24.033
0.24286	240.41	1.1613	24.192
0.24286	241.63	1.161	24.351
0.24286	242.86	1.1607	24.511
0.24286	244.08	1.1604	24.671
0.24286	245.31	1.1601	24.831
0.24286	246.53	1.1598	24.991
0.24286	247.76	1.1595	25.15
0.24286	248.98	1.1592	25.31
0.24286	250.2	1.1589	25.468
0.24286	251.43	1.1586	25.627
0.24286	252.65	1.1583	25.784
0.24286	253.88	1.1579	25.94
0.24286	255.1	1.1576	26.094
0.24286	256.33	1.1573	26.247
0.24286	257.55	1.157	26.398
0.24286	258.78	1.1567	26.547
0.24286	260	1.1564	26.694
0.24735	200	1.1707	19.231
0.24735	201.22	1.1705	19.371
0.24735	202.45	1.1702	19.512
0.24735	203.67	1.17	19.653
0.24735	204.9	1.1697	19.795
0.24735	206.12	1.1695	19.937
0.24735	207.35	1.1692	20.08
0.24735	208.57	1.169	20.223
0.24735	209.8	1.1687	20.367
0.24735	211.02	1.1684	20.51
0.24735	212.24	1.1682	20.654
0.24735	213.47	1.1679	20.798
0.24735	214.69	1.1677	20.943
0.24735	215.92	1.1674	21.088
0.24735	217.14	1.1671	21.233
0.24735	218.37	1.1669	21.378
0.24735	219.59	1.1666	21.524
0.24735	220.82	1.1663	21.671
0.24735	222.04	1.1661	21.818
0.24735	223.27	1.1658	21.966
0.24735	224.49	1.1655	22.114
0.24735	225.71	1.1652	22.264
0.24735	226.94	1.165	22.414
0.24735	228.16	1.1647	22.565
0.24735	229.39	1.1644	22.717
0.24735	230.61	1.1641	22.87
0.24735	231.84	1.1638	23.023
0.24735	233.06	1.1635	23.178
0.24735	234.29	1.1633	23.333
0.24735	235.51	1.163	23.489
0.24735	236.73	1.1627	23.645
0.24735	237.96	1.1624	23.803
0.24735	239.18	1.1621	23.961
0.24735	240.41	1.1618	24.119
0.24735	241.63	1.1615	24.278
0.24735	242.86	1.1612	24.437
0.24735	244.08	1.1609	24.596
0.24735	245.31	1.1606	24.755
0.24735	246.53	1.1603	24.915
0.24735	247.76	1.16	25.074
0.24735	248.98	1.1597	25.232
0.24735	250.2	1.1594	25.39
0.24735	251.43	1.1591	25.547
0.24735	252.65	1.1588	25.703
0.24735	253.88	1.1585	25.858
0.24735	255.1	1.1582	26.012
0.24735	256.33	1.1579	26.164
0.24735	257.55	1.1576	26.314
0.24735	258.78	1.1573	26.463
0.24735	260	1.1569	26.608
0.25184	200	1.1712	19.176
0.25184	201.22	1.171	19.316
0.25184	202.45	1.1707	19.456
0.25184	203.67	1.1705	19.597
0.25184	204.9	1.1702	19.738
0.25184	206.12	1.17	19.88
0.25184	207.35	1.1697	20.022
0.25184	208.57	1.1695	20.165
0.25184	209.8	1.1692	20.308
0.25184	211.02	1.169	20.451
0.25184	212.24	1.1687	20.594
0.25184	213.47	1.1684	20.738
0.25184	214.69	1.1682	20.882
0.25184	215.92	1.1679	21.026
0.25184	217.14	1.1677	21.17
0.25184	218.37	1.1674	21.315
0.25184	219.59	1.1671	21.461
0.25184	220.82	1.1669	21.607
0.25184	222.04	1.1666	21.754
0.25184	223.27	1.1663	21.901
0.25184	224.49	1.166	22.049
0.25184	225.71	1.1658	22.198
0.25184	226.94	1.1655	22.348
0.25184	228.16	1.1652	22.498
0.25184	229.39	1.1649	22.65
0.25184	230.61	1.1647	22.802
0.25184	231.84	1.1644	22.955
0.25184	233.06	1.1641	23.109
0.25184	234.29	1.1638	23.264
0.25184	235.51	1.1635	23.419
0.25184	236.73	1.1632	23.575
0.25184	237.96	1.1629	23.732
0.25184	239.18	1.1627	23.889
0.25184	240.41	1.1624	24.047
0.25184	241.63	1.1621	24.205
0.25184	242.86	1.1618	24.363
0.25184	244.08	1.1615	24.522
0.25184	245.31	1.1612	24.681
0.25184	246.53	1.1609	24.839
0.25184	247.76	1.1606	24.997
0.25184	248.98	1.1603	25.155
0.25184	250.2	1.16	25.312
0.25184	251.43	1.1597	25.468
0.25184	252.65	1.1594	25.624
0.25184	253.88	1.1591	25.778
0.25184	255.1	1.1587	25.931
0.25184	256.33	1.1584	26.082
0.25184	257.55	1.1581	26.231
0.25184	258.78	1.1578	26.378
0.25184	260	1.1575	26.523
0.25633	200	1.1718	19.121
0.25633	201.22	1.1715	19.26
0.25633	202.45	1.1713	19.4
0.25633	203.67	1.171	19.541
0.25633	204.9	1.1708	19.681
0.25633	206.12	1.1705	19.823
0.25633	207.35	1.1703	19.964
0.25633	208.57	1.17	20.107
0.25633	209.8	1.1697	20.249
0.25633	211.02	1.1695	20.391
0.25633	212.24	1.1692	20.534
0.25633	213.47	1.169	20.677
0.25633	214.69	1.1687	20.821
0.25633	215.92	1.1685	20.965
0.25633	217.14	1.1682	21.109
0.25633	218.37	1.1679	21.253
0.25633	219.59	1.1677	21.398
0.25633	220.82	1.1674	21.544
0.25633	222.04	1.1671	21.69
0.25633	223.27	1.1668	21.837
0.25633	224.49	1.1666	21.984
0.25633	225.71	1.1663	22.133
0.25633	226.94	1.166	22.282
0.25633	228.16	1.1657	22.432
0.25633	229.39	1.1655	22.583
0.25633	230.61	1.1652	22.735
0.25633	231.84	1.1649	22.887
0.25633	233.06	1.1646	23.041
0.25633	234.29	1.1643	23.195
0.25633	235.51	1.1641	23.35
0.25633	236.73	1.1638	23.505
0.25633	237.96	1.1635	23.661
0.25633	239.18	1.1632	23.818
0.25633	240.41	1.1629	23.975
0.25633	241.63	1.1626	24.133
0.25633	242.86	1.1623	24.29
0.25633	244.08	1.162	24.448
0.25633	245.31	1.1617	24.606
0.25633	246.53	1.1614	24.764
0.25633	247.76	1.1611	24.921
0.25633	248.98	1.1608	25.078
0.25633	250.2	1.1605	25.235
0.25633	251.43	1.1602	25.39
0.25633	252.65	1.1599	25.545
0.25633	253.88	1.1596	25.698
0.25633	255.1	1.1593	25.85
0.25633	256.33	1.159	26.001
0.25633	257.55	1.1587	26.149
0.25633	258.78	1.1584	26.295
0.25633	260	1.1581	26.439
0.26082	200	1.1723	19.067
0.26082	201.22	1.172	19.205
0.26082	202.45	1.1718	19.345
0.26082	203.67	1.1715	19.485
0.26082	204.9	1.1713	19.625
0.26082	206.12	1.171	19.766
0.26082	207.35	1.1708	19.907
0.26082	208.57	1.1705	20.049
0.26082	209.8	1.1703	20.191
0.26082	211.02	1.17	20.333
0.26082	212.24	1.1698	20.475
0.26082	213.47	1.1695	20.618
0.26082	214.69	1.1692	20.761
0.26082	215.92	1.169	20.904
0.26082	217.14	1.1687	21.047
0.26082	218.37	1.1685	21.191
0.26082	219.59	1.1682	21.336
0.26082	220.82	1.1679	21.481
0.26082	222.04	1.1676	21.626
0.26082	223.27	1.1674	21.773
0.26082	224.49	1.1671	21.92
0.26082	225.71	1.1668	22.068
0.26082	226.94	1.1666	22.217
0.26082	228.16	1.1663	22.366
0.26082	229.39	1.166	22.516
0.26082	230.61	1.1657	22.668
0.26082	231.84	1.1654	22.82
0.26082	233.06	1.1652	22.973
0.26082	234.29	1.1649	23.126
0.26082	235.51	1.1646	23.28
0.26082	236.73	1.1643	23.435
0.26082	237.96	1.164	23.591
0.26082	239.18	1.1637	23.747
0.26082	240.41	1.1634	23.904
0.26082	241.63	1.1632	24.061
0.26082	242.86	1.1629	24.218
0.26082	244.08	1.1626	24.375
0.26082	245.31	1.1623	24.532
0.26082	246.53	1.162	24.689
0.26082	247.76	1.1617	24.846
0.26082	248.98	1.1614	25.002
0.26082	250.2	1.1611	25.158
0.26082	251.43	1.1608	25.313
0.26082	252.65	1.1605	25.467
0.26082	253.88	1.1602	25.619
0.26082	255.1	1.1599	25.77
0.26082	256.33	1.1595	25.92
0.26082	257.55	1.1592	26.067
0.26082	258.78	1.1589	26.213
0.26082	260	1.1586	26.356
0.26531	200	1.1728	19.012
0.26531	201.22	1.1725	19.151
0.26531	202.45	1.1723	19.29
0.26531	203.67	1.1721	19.429
0.26531	204.9	1.1718	19.569
0.26531	206.12	1.1716	19.71
0.26531	207.35	1.1713	19.85
0.26531	208.57	1.1711	19.991
0.26531	209.8	1.1708	20.133
0.26531	211.02	1.1705	20.274
0.26531	212.24	1.1703	20.416
0.26531	213.47	1.17	20.558
0.26531	214.69	1.1698	20.701
0.26531	215.92	1.1695	20.843
0.26531	217.14	1.1692	20.986
0.26531	218.37	1.169	21.13
0.26531	219.59	1.1687	21.274
0.26531	220.82	1.1684	21.418
0.26531	222.04	1.1682	21.563
0.26531	223.27	1.1679	21.709
0.26531	224.49	1.1676	21.856
0.26531	225.71	1.1674	22.003
0.26531	226.94	1.1671	22.152
0.26531	228.16	1.1668	22.301
0.26531	229.39	1.1665	22.45
0.26531	230.61	1.1663	22.601
0.26531	231.84	1.166	22.753
0.26531	233.06	1.1657	22.905
0.26531	234.29	1.1654	23.058
0.26531	235.51	1.1651	23.212
0.26531	236.73	1.1649	23.366
0.26531	237.96	1.1646	23.521
0.26531	239.18	1.1643	23.677
0.26531	240.41	1.164	23.833
0.26531	241.63	1.1637	23.989
0.26531	242.86	1.1634	24.146
0.26531	244.08	1.1631	24.302
0.26531	245.31	1.1628	24.459
0.26531	246.53	1.1625	24.615
0.26531	247.76	1.1622	24.771
0.26531	248.98	1.1619	24.927
0.26531	250.2	1.1616	25.082
0.26531	251.43	1.1613	25.236
0.26531	252.65	1.161	25.389
0.26531	253.88	1.1607	25.541
0.26531	255.1	1.1604	25.691
0.26531	256.33	1.1601	25.84
0.26531	257.55	1.1598	25.986
0.26531	258.78	1.1595	26.131
0.26531	260	1.1592	26.273
0.2698	200	1.1733	18.959
0.2698	201.22	1.1731	19.097
0.2698	202.45	1.1728	19.235
0.2698	203.67	1.1726	19.374
0.2698	204.9	1.1723	19.514
0.2698	206.12	1.1721	19.653
0.2698	207.35	1.1718	19.794
0.2698	208.57	1.1716	19.934
0.2698	209.8	1.1713	20.075
0.2698	211.02	1.1711	20.216
0.2698	212.24	1.1708	20.358
0.2698	213.47	1.1706	20.499
0.2698	214.69	1.1703	20.641
0.2698	215.92	1.17	20.783
0.2698	217.14	1.1698	20.926
0.2698	218.37	1.1695	21.069
0.2698	219.59	1.1692	21.212
0.2698	220.82	1.169	21.356
0.2698	222.04	1.1687	21.501
0.2698	223.27	1.1684	21.646
0.2698	224.49	1.1682	21.792
0.2698	225.71	1.1679	21.939
0.2698	226.94	1.1676	22.087
0.2698	228.16	1.1674	22.236
0.2698	229.39	1.1671	22.385
0.2698	230.61	1.1668	22.535
0.2698	231.84	1.1665	22.686
0.2698	233.06	1.1662	22.838
0.2698	234.29	1.166	22.99
0.2698	235.51	1.1657	23.144
0.2698	236.73	1.1654	23.297
0.2698	237.96	1.1651	23.452
0.2698	239.18	1.1648	23.607
0.2698	240.41	1.1645	23.762
0.2698	241.63	1.1642	23.918
0.2698	242.86	1.1639	24.074
0.2698	244.08	1.1637	24.23
0.2698	245.31	1.1634	24.386
0.2698	246.53	1.1631	24.541
0.2698	247.76	1.1628	24.697
0.2698	248.98	1.1625	24.852
0.2698	250.2	1.1622	25.006
0.2698	251.43	1.1619	25.159
0.2698	252.65	1.1616	25.312
0.2698	253.88	1.1613	25.463
0.2698	255.1	1.1609	25.612
0.2698	256.33	1.1606	25.76
0.2698	257.55	1.1603	25.906
0.2698	258.78	1.16	26.05
0.2698	260	1.1597	26.191
0.27429	200	1.1738	18.905
0.27429	201.22	1.1736	19.043
0.27429	202.45	1.1733	19.181
0.27429	203.67	1.1731	19.319
0.27429	204.9	1.1728	19.458
0.27429	206.12	1.1726	19.598
0.27429	207.35	1.1723	19.738
0.27429	208.57	1.1721	19.878
0.27429	209.8	1.1718	20.018
0.27429	211.02	1.1716	20.159
0.27429	212.24	1.1713	20.3
0.27429	213.47	1.1711	20.441
0.27429	214.69	1.1708	20.582
0.27429	215.92	1.1706	20.724
0.27429	217.14	1.1703	20.866
0.27429	218.37	1.17	21.008
0.27429	219.59	1.1698	21.151
0.27429	220.82	1.1695	21.295
0.27429	222.04	1.1692	21.439
0.27429	223.27	1.169	21.584
0.27429	224.49	1.1687	21.729
0.27429	225.71	1.1684	21.876
0.27429	226.94	1.1682	22.023
0.27429	228.16	1.1679	22.171
0.27429	229.39	1.1676	22.32
0.27429	230.61	1.1673	22.469
0.27429	231.84	1.1671	22.62
0.27429	233.06	1.1668	22.771
0.27429	234.29	1.1665	22.923
0.27429	235.51	1.1662	23.076
0.27429	236.73	1.1659	23.229
0.27429	237.96	1.1656	23.383
0.27429	239.18	1.1654	23.537
0.27429	240.41	1.1651	23.692
0.27429	241.63	1.1648	23.847
0.27429	242.86	1.1645	24.002
0.27429	244.08	1.1642	24.158
0.27429	245.31	1.1639	24.313
0.27429	246.53	1.1636	24.468
0.27429	247.76	1.1633	24.623
0.27429	248.98	1.163	24.777
0.27429	250.2	1.1627	24.931
0.27429	251.43	1.1624	25.084
0.27429	252.65	1.1621	25.235
0.27429	253.88	1.1618	25.386
0.27429	255.1	1.1615	25.534
0.27429	256.33	1.1612	25.682
0.27429	257.55	1.1609	25.827
0.27429	258.78	1.1606	25.97
0.27429	260	1.1603	26.11
0.27878	200	1.1743	18.852
0.27878	201.22	1.1741	18.989
0.27878	202.45	1.1739	19.127
0.27878	203.67	1.1736	19.265
0.27878	204.9	1.1734	19.403
0.27878	206.12	1.1731	19.542
0.27878	207.35	1.1729	19.682
0.27878	208.57	1.1726	19.821
0.27878	209.8	1.1724	19.961
0.27878	211.02	1.1721	20.102
0.27878	212.24	1.1719	20.242
0.27878	213.47	1.1716	20.383
0.27878	214.69	1.1713	20.524
0.27878	215.92	1.1711	20.665
0.27878	217.14	1.1708	20.806
0.27878	218.37	1.1706	20.948
0.27878	219.59	1.1703	21.091
0.27878	220.82	1.17	21.234
0.27878	222.04	1.1698	21.377
0.27878	223.27	1.1695	21.522
0.27878	224.49	1.1692	21.667
0.27878	225.71	1.169	21.812
0.27878	226.94	1.1687	21.959
0.27878	228.16	1.1684	22.107
0.27878	229.39	1.1681	22.255
0.27878	230.61	1.1679	22.404
0.27878	231.84	1.1676	22.554
0.27878	233.06	1.1673	22.705
0.27878	234.29	1.167	22.856
0.27878	235.51	1.1667	23.008
0.27878	236.73	1.1665	23.161
0.27878	237.96	1.1662	23.314
0.27878	239.18	1.1659	23.468
0.27878	240.41	1.1656	23.622
0.27878	241.63	1.1653	23.777
0.27878	242.86	1.165	23.932
0.27878	244.08	1.1647	24.086
0.27878	245.31	1.1644	24.241
0.27878	246.53	1.1641	24.396
0.27878	247.76	1.1638	24.55
0.27878	248.98	1.1636	24.703
0.27878	250.2	1.1633	24.856
0.27878	251.43	1.163	25.008
0.27878	252.65	1.1626	25.159
0.27878	253.88	1.1623	25.309
0.27878	255.1	1.162	25.457
0.27878	256.33	1.1617	25.603
0.27878	257.55	1.1614	25.748
0.27878	258.78	1.1611	25.89
0.27878	260	1.1608	26.03
0.28327	200	1.1749	18.799
0.28327	201.22	1.1746	18.936
0.28327	202.45	1.1744	19.073
0.28327	203.67	1.1741	19.211
0.28327	204.9	1.1739	19.349
0.28327	206.12	1.1736	19.487
0.28327	207.35	1.1734	19.626
0.28327	208.57	1.1731	19.765
0.28327	209.8	1.1729	19.905
0.28327	211.02	1.1726	20.045
0.28327	212.24	1.1724	20.185
0.28327	213.47	1.1721	20.325
0.28327	214.69	1.1719	20.465
0.28327	215.92	1.1716	20.606
0.28327	217.14	1.1713	20.747
0.28327	218.37	1.1711	20.889
0.28327	219.59	1.1708	21.03
0.28327	220.82	1.1706	21.173
0.28327	222.04	1.1703	21.316
0.28327	223.27	1.17	21.46
0.28327	224.49	1.1698	21.604
0.28327	225.71	1.1695	21.75
0.28327	226.94	1.1692	21.896
0.28327	228.16	1.1689	22.043
0.28327	229.39	1.1687	22.19
0.28327	230.61	1.1684	22.339
0.28327	231.84	1.1681	22.488
0.28327	233.06	1.1678	22.639
0.28327	234.29	1.1676	22.789
0.28327	235.51	1.1673	22.941
0.28327	236.73	1.167	23.093
0.28327	237.96	1.1667	23.246
0.28327	239.18	1.1664	23.399
0.28327	240.41	1.1661	23.553
0.28327	241.63	1.1658	23.707
0.28327	242.86	1.1656	23.861
0.28327	244.08	1.1653	24.015
0.28327	245.31	1.165	24.169
0.28327	246.53	1.1647	24.323
0.28327	247.76	1.1644	24.477
0.28327	248.98	1.1641	24.63
0.28327	250.2	1.1638	24.782
0.28327	251.43	1.1635	24.934
0.28327	252.65	1.1632	25.084
0.28327	253.88	1.1629	25.233
0.28327	255.1	1.1626	25.38
0.28327	256.33	1.1623	25.526
0.28327	257.55	1.162	25.67
0.28327	258.78	1.1617	25.811
0.28327	260	1.1614	25.95
0.28776	200	1.1754	18.747
0.28776	201.22	1.1751	18.883
0.28776	202.45	1.1749	19.019
0.28776	203.67	1.1746	19.157
0.28776	204.9	1.1744	19.294
0.28776	206.12	1.1741	19.433
0.28776	207.35	1.1739	19.571
0.28776	208.57	1.1737	19.71
0.28776	209.8	1.1734	19.849
0.28776	211.02	1.1731	19.988
0.28776	212.24	1.1729	20.128
0.28776	213.47	1.1726	20.268
0.28776	214.69	1.1724	20.408
0.28776	215.92	1.1721	20.548
0.28776	217.14	1.1719	20.688
0.28776	218.37	1.1716	20.829
0.28776	219.59	1.1713	20.971
0.28776	220.82	1.1711	21.113
0.28776	222.04	1.1708	21.255
0.28776	223.27	1.1705	21.398
0.28776	224.49	1.1703	21.542
0.28776	225.71	1.17	21.687
0.28776	226.94	1.1697	21.833
0.28776	228.16	1.1695	21.979
0.28776	229.39	1.1692	22.126
0.28776	230.61	1.1689	22.274
0.28776	231.84	1.1686	22.423
0.28776	233.06	1.1684	22.573
0.28776	234.29	1.1681	22.723
0.28776	235.51	1.1678	22.874
0.28776	236.73	1.1675	23.026
0.28776	237.96	1.1672	23.178
0.28776	239.18	1.167	23.331
0.28776	240.41	1.1667	23.484
0.28776	241.63	1.1664	23.637
0.28776	242.86	1.1661	23.791
0.28776	244.08	1.1658	23.945
0.28776	245.31	1.1655	24.098
0.28776	246.53	1.1652	24.252
0.28776	247.76	1.1649	24.405
0.28776	248.98	1.1646	24.557
0.28776	250.2	1.1643	24.709
0.28776	251.43	1.164	24.859
0.28776	252.65	1.1637	25.009
0.28776	253.88	1.1634	25.157
0.28776	255.1	1.1631	25.304
0.28776	256.33	1.1628	25.449
0.28776	257.55	1.1625	25.592
0.28776	258.78	1.1622	25.733
0.28776	260	1.1619	25.871
0.29224	200	1.1759	18.694
0.29224	201.22	1.1756	18.83
0.29224	202.45	1.1754	18.966
0.29224	203.67	1.1752	19.103
0.29224	204.9	1.1749	19.24
0.29224	206.12	1.1747	19.378
0.29224	207.35	1.1744	19.516
0.29224	208.57	1.1742	19.655
0.29224	209.8	1.1739	19.793
0.29224	211.02	1.1737	19.932
0.29224	212.24	1.1734	20.071
0.29224	213.47	1.1732	20.211
0.29224	214.69	1.1729	20.35
0.29224	215.92	1.1726	20.49
0.29224	217.14	1.1724	20.63
0.29224	218.37	1.1721	20.77
0.29224	219.59	1.1719	20.911
0.29224	220.82	1.1716	21.053
0.29224	222.04	1.1713	21.195
0.29224	223.27	1.1711	21.337
0.29224	224.49	1.1708	21.481
0.29224	225.71	1.1705	21.625
0.29224	226.94	1.1703	21.77
0.29224	228.16	1.17	21.916
0.29224	229.39	1.1697	22.063
0.29224	230.61	1.1694	22.21
0.29224	231.84	1.1692	22.359
0.29224	233.06	1.1689	22.508
0.29224	234.29	1.1686	22.657
0.29224	235.51	1.1683	22.808
0.29224	236.73	1.1681	22.959
0.29224	237.96	1.1678	23.111
0.29224	239.18	1.1675	23.263
0.29224	240.41	1.1672	23.416
0.29224	241.63	1.1669	23.568
0.29224	242.86	1.1666	23.721
0.29224	244.08	1.1663	23.874
0.29224	245.31	1.1661	24.027
0.29224	246.53	1.1658	24.18
0.29224	247.76	1.1655	24.333
0.29224	248.98	1.1652	24.484
0.29224	250.2	1.1649	24.636
0.29224	251.43	1.1646	24.786
0.29224	252.65	1.1643	24.935
0.29224	253.88	1.164	25.082
0.29224	255.1	1.1637	25.229
0.29224	256.33	1.1634	25.373
0.29224	257.55	1.1631	25.515
0.29224	258.78	1.1628	25.655
0.29224	260	1.1625	25.792
0.29673	200	1.1764	18.642
0.29673	201.22	1.1762	18.778
0.29673	202.45	1.1759	18.914
0.29673	203.67	1.1757	19.05
0.29673	204.9	1.1754	19.187
0.29673	206.12	1.1752	19.324
0.29673	207.35	1.1749	19.462
0.29673	208.57	1.1747	19.6
0.29673	209.8	1.1744	19.738
0.29673	211.02	1.1742	19.877
0.29673	212.24	1.1739	20.015
0.29673	213.47	1.1737	20.154
0.29673	214.69	1.1734	20.293
0.29673	215.92	1.1732	20.432
0.29673	217.14	1.1729	20.572
0.29673	218.37	1.1726	20.712
0.29673	219.59	1.1724	20.852
0.29673	220.82	1.1721	20.993
0.29673	222.04	1.1719	21.135
0.29673	223.27	1.1716	21.277
0.29673	224.49	1.1713	21.42
0.29673	225.71	1.1711	21.564
0.29673	226.94	1.1708	21.708
0.29673	228.16	1.1705	21.853
0.29673	229.39	1.1702	22
0.29673	230.61	1.17	22.147
0.29673	231.84	1.1697	22.294
0.29673	233.06	1.1694	22.443
0.29673	234.29	1.1691	22.592
0.29673	235.51	1.1689	22.742
0.29673	236.73	1.1686	22.893
0.29673	237.96	1.1683	23.044
0.29673	239.18	1.168	23.195
0.29673	240.41	1.1677	23.347
0.29673	241.63	1.1675	23.5
0.29673	242.86	1.1672	23.652
0.29673	244.08	1.1669	23.805
0.29673	245.31	1.1666	23.957
0.29673	246.53	1.1663	24.109
0.29673	247.76	1.166	24.261
0.29673	248.98	1.1657	24.413
0.29673	250.2	1.1654	24.563
0.29673	251.43	1.1651	24.713
0.29673	252.65	1.1648	24.861
0.29673	253.88	1.1645	25.008
0.29673	255.1	1.1642	25.154
0.29673	256.33	1.1639	25.297
0.29673	257.55	1.1636	25.439
0.29673	258.78	1.1633	25.578
0.29673	260	1.163	25.715
0.30122	200	1.1769	18.591
0.30122	201.22	1.1767	18.726
0.30122	202.45	1.1764	18.861
0.30122	203.67	1.1762	18.997
0.30122	204.9	1.1759	19.134
0.30122	206.12	1.1757	19.27
0.30122	207.35	1.1754	19.408
0.30122	208.57	1.1752	19.545
0.30122	209.8	1.1749	19.683
0.30122	211.02	1.1747	19.821
0.30122	212.24	1.1744	19.959
0.30122	213.47	1.1742	20.098
0.30122	214.69	1.1739	20.236
0.30122	215.92	1.1737	20.375
0.30122	217.14	1.1734	20.514
0.30122	218.37	1.1732	20.654
0.30122	219.59	1.1729	20.794
0.30122	220.82	1.1726	20.934
0.30122	222.04	1.1724	21.075
0.30122	223.27	1.1721	21.217
0.30122	224.49	1.1719	21.359
0.30122	225.71	1.1716	21.502
0.30122	226.94	1.1713	21.646
0.30122	228.16	1.171	21.791
0.30122	229.39	1.1708	21.937
0.30122	230.61	1.1705	22.083
0.30122	231.84	1.1702	22.23
0.30122	233.06	1.17	22.378
0.30122	234.29	1.1697	22.527
0.30122	235.51	1.1694	22.677
0.30122	236.73	1.1691	22.827
0.30122	237.96	1.1688	22.977
0.30122	239.18	1.1686	23.128
0.30122	240.41	1.1683	23.28
0.30122	241.63	1.168	23.432
0.30122	242.86	1.1677	23.584
0.30122	244.08	1.1674	23.736
0.30122	245.31	1.1671	23.887
0.30122	246.53	1.1668	24.039
0.30122	247.76	1.1665	24.19
0.30122	248.98	1.1662	24.341
0.30122	250.2	1.1659	24.491
0.30122	251.43	1.1657	24.64
0.30122	252.65	1.1654	24.788
0.30122	253.88	1.1651	24.934
0.30122	255.1	1.1648	25.079
0.30122	256.33	1.1645	25.222
0.30122	257.55	1.1641	25.363
0.30122	258.78	1.1638	25.501
0.30122	260	1.1635	25.637
0.30571	200	1.1774	18.54
0.30571	201.22	1.1772	18.674
0.30571	202.45	1.1769	18.809
0.30571	203.67	1.1767	18.945
0.30571	204.9	1.1764	19.081
0.30571	206.12	1.1762	19.217
0.30571	207.35	1.176	19.354
0.30571	208.57	1.1757	19.491
0.30571	209.8	1.1755	19.629
0.30571	211.02	1.1752	19.766
0.30571	212.24	1.175	19.904
0.30571	213.47	1.1747	20.042
0.30571	214.69	1.1745	20.18
0.30571	215.92	1.1742	20.318
0.30571	217.14	1.1739	20.457
0.30571	218.37	1.1737	20.596
0.30571	219.59	1.1734	20.735
0.30571	220.82	1.1732	20.875
0.30571	222.04	1.1729	21.016
0.30571	223.27	1.1726	21.157
0.30571	224.49	1.1724	21.299
0.30571	225.71	1.1721	21.442
0.30571	226.94	1.1718	21.585
0.30571	228.16	1.1716	21.729
0.30571	229.39	1.1713	21.874
0.30571	230.61	1.171	22.02
0.30571	231.84	1.1708	22.167
0.30571	233.06	1.1705	22.314
0.30571	234.29	1.1702	22.463
0.30571	235.51	1.1699	22.612
0.30571	236.73	1.1696	22.761
0.30571	237.96	1.1694	22.911
0.30571	239.18	1.1691	23.062
0.30571	240.41	1.1688	23.213
0.30571	241.63	1.1685	23.364
0.30571	242.86	1.1682	23.515
0.30571	244.08	1.1679	23.667
0.30571	245.31	1.1677	23.818
0.30571	246.53	1.1674	23.969
0.30571	247.76	1.1671	24.12
0.30571	248.98	1.1668	24.27
0.30571	250.2	1.1665	24.419
0.30571	251.43	1.1662	24.568
0.30571	252.65	1.1659	24.715
0.30571	253.88	1.1656	24.861
0.30571	255.1	1.1653	25.005
0.30571	256.33	1.165	25.147
0.30571	257.55	1.1647	25.288
0.30571	258.78	1.1644	25.425
0.30571	260	1.1641	25.561
0.3102	200	1.1779	18.489
0.3102	201.22	1.1777	18.623
0.3102	202.45	1.1774	18.757
0.3102	203.67	1.1772	18.892
0.3102	204.9	1.177	19.028
0.3102	206.12	1.1767	19.164
0.3102	207.35	1.1765	19.301
0.3102	208.57	1.1762	19.437
0.3102	209.8	1.176	19.574
0.3102	211.02	1.1757	19.711
0.3102	212.24	1.1755	19.849
0.3102	213.47	1.1752	19.986
0.3102	214.69	1.175	20.124
0.3102	215.92	1.1747	20.262
0.3102	217.14	1.1745	20.4
0.3102	218.37	1.1742	20.538
0.3102	219.59	1.1739	20.677
0.3102	220.82	1.1737	20.817
0.3102	222.04	1.1734	20.957
0.3102	223.27	1.1732	21.097
0.3102	224.49	1.1729	21.239
0.3102	225.71	1.1726	21.381
0.3102	226.94	1.1724	21.524
0.3102	228.16	1.1721	21.668
0.3102	229.39	1.1718	21.812
0.3102	230.61	1.1715	21.958
0.3102	231.84	1.1713	22.104
0.3102	233.06	1.171	22.251
0.3102	234.29	1.1707	22.399
0.3102	235.51	1.1704	22.547
0.3102	236.73	1.1702	22.696
0.3102	237.96	1.1699	22.846
0.3102	239.18	1.1696	22.996
0.3102	240.41	1.1693	23.146
0.3102	241.63	1.169	23.297
0.3102	242.86	1.1688	23.448
0.3102	244.08	1.1685	23.598
0.3102	245.31	1.1682	23.749
0.3102	246.53	1.1679	23.9
0.3102	247.76	1.1676	24.05
0.3102	248.98	1.1673	24.199
0.3102	250.2	1.167	24.348
0.3102	251.43	1.1667	24.496
0.3102	252.65	1.1664	24.643
0.3102	253.88	1.1661	24.788
0.3102	255.1	1.1658	24.931
0.3102	256.33	1.1655	25.073
0.3102	257.55	1.1652	25.213
0.3102	258.78	1.1649	25.35
0.3102	260	1.1646	25.484
0.31469	200	1.1784	18.438
0.31469	201.22	1.1782	18.572
0.31469	202.45	1.178	18.706
0.31469	203.67	1.1777	18.84
0.31469	204.9	1.1775	18.976
0.31469	206.12	1.1772	19.111
0.31469	207.35	1.177	19.247
0.31469	208.57	1.1767	19.384
0.31469	209.8	1.1765	19.52
0.31469	211.02	1.1762	19.657
0.31469	212.24	1.176	19.794
0.31469	213.47	1.1757	19.931
0.31469	214.69	1.1755	20.068
0.31469	215.92	1.1752	20.206
0.31469	217.14	1.175	20.343
0.31469	218.37	1.1747	20.481
0.31469	219.59	1.1745	20.62
0.31469	220.82	1.1742	20.759
0.31469	222.04	1.1739	20.898
0.31469	223.27	1.1737	21.038
0.31469	224.49	1.1734	21.179
0.31469	225.71	1.1731	21.321
0.31469	226.94	1.1729	21.463
0.31469	228.16	1.1726	21.607
0.31469	229.39	1.1723	21.751
0.31469	230.61	1.1721	21.896
0.31469	231.84	1.1718	22.041
0.31469	233.06	1.1715	22.188
0.31469	234.29	1.1713	22.335
0.31469	235.51	1.171	22.483
0.31469	236.73	1.1707	22.631
0.31469	237.96	1.1704	22.78
0.31469	239.18	1.1701	22.93
0.31469	240.41	1.1699	23.08
0.31469	241.63	1.1696	23.23
0.31469	242.86	1.1693	23.38
0.31469	244.08	1.169	23.531
0.31469	245.31	1.1687	23.681
0.31469	246.53	1.1684	23.831
0.31469	247.76	1.1681	23.98
0.31469	248.98	1.1678	24.129
0.31469	250.2	1.1676	24.277
0.31469	251.43	1.1673	24.425
0.31469	252.65	1.167	24.571
0.31469	253.88	1.1667	24.715
0.31469	255.1	1.1664	24.858
0.31469	256.33	1.1661	24.999
0.31469	257.55	1.1658	25.138
0.31469	258.78	1.1655	25.275
0.31469	260	1.1652	25.409
0.31918	200	1.1789	18.388
0.31918	201.22	1.1787	18.521
0.31918	202.45	1.1785	18.655
0.31918	203.67	1.1782	18.789
0.31918	204.9	1.178	18.924
0.31918	206.12	1.1777	19.059
0.31918	207.35	1.1775	19.195
0.31918	208.57	1.1772	19.331
0.31918	209.8	1.177	19.467
0.31918	211.02	1.1767	19.603
0.31918	212.24	1.1765	19.74
0.31918	213.47	1.1762	19.876
0.31918	214.69	1.176	20.013
0.31918	215.92	1.1757	20.15
0.31918	217.14	1.1755	20.287
0.31918	218.37	1.1752	20.425
0.31918	219.59	1.175	20.563
0.31918	220.82	1.1747	20.701
0.31918	222.04	1.1745	20.84
0.31918	223.27	1.1742	20.98
0.31918	224.49	1.1739	21.12
0.31918	225.71	1.1737	21.261
0.31918	226.94	1.1734	21.403
0.31918	228.16	1.1731	21.546
0.31918	229.39	1.1729	21.69
0.31918	230.61	1.1726	21.834
0.31918	231.84	1.1723	21.979
0.31918	233.06	1.172	22.125
0.31918	234.29	1.1718	22.272
0.31918	235.51	1.1715	22.419
0.31918	236.73	1.1712	22.567
0.31918	237.96	1.1709	22.716
0.31918	239.18	1.1707	22.865
0.31918	240.41	1.1704	23.014
0.31918	241.63	1.1701	23.164
0.31918	242.86	1.1698	23.313
0.31918	244.08	1.1695	23.463
0.31918	245.31	1.1692	23.613
0.31918	246.53	1.169	23.762
0.31918	247.76	1.1687	23.911
0.31918	248.98	1.1684	24.06
0.31918	250.2	1.1681	24.207
0.31918	251.43	1.1678	24.354
0.31918	252.65	1.1675	24.499
0.31918	253.88	1.1672	24.643
0.31918	255.1	1.1669	24.786
0.31918	256.33	1.1666	24.926
0.31918	257.55	1.1663	25.064
0.31918	258.78	1.166	25.2
0.31918	260	1.1657	25.333
0.32367	200	1.1794	18.338
0.32367	201.22	1.1792	18.47
0.32367	202.45	1.179	18.604
0.32367	203.67	1.1787	18.738
0.32367	204.9	1.1785	18.872
0.32367	206.12	1.1782	19.007
0.32367	207.35	1.178	19.142
0.32367	208.57	1.1778	19.278
0.32367	209.8	1.1775	19.413
0.32367	211.02	1.1773	19.549
0.32367	212.24	1.177	19.685
0.32367	213.47	1.1768	19.822
0.32367	214.69	1.1765	19.958
0.32367	215.92	1.1763	20.094
0.32367	217.14	1.176	20.231
0.32367	218.37	1.1757	20.368
0.32367	219.59	1.1755	20.506
0.32367	220.82	1.1752	20.644
0.32367	222.04	1.175	20.782
0.32367	223.27	1.1747	20.921
0.32367	224.49	1.1744	21.061
0.32367	225.71	1.1742	21.202
0.32367	226.94	1.1739	21.344
0.32367	228.16	1.1736	21.486
0.32367	229.39	1.1734	21.629
0.32367	230.61	1.1731	21.773
0.32367	231.84	1.1728	21.917
0.32367	233.06	1.1726	22.063
0.32367	234.29	1.1723	22.209
0.32367	235.51	1.172	22.356
0.32367	236.73	1.1717	22.503
0.32367	237.96	1.1715	22.651
0.32367	239.18	1.1712	22.8
0.32367	240.41	1.1709	22.949
0.32367	241.63	1.1706	23.098
0.32367	242.86	1.1703	23.247
0.32367	244.08	1.1701	23.396
0.32367	245.31	1.1698	23.545
0.32367	246.53	1.1695	23.694
0.32367	247.76	1.1692	23.843
0.32367	248.98	1.1689	23.99
0.32367	250.2	1.1686	24.137
0.32367	251.43	1.1683	24.283
0.32367	252.65	1.168	24.428
0.32367	253.88	1.1677	24.572
0.32367	255.1	1.1674	24.713
0.32367	256.33	1.1671	24.853
0.32367	257.55	1.1668	24.991
0.32367	258.78	1.1665	25.126
0.32367	260	1.1662	25.258
0.32816	200	1.1799	18.288
0.32816	201.22	1.1797	18.42
0.32816	202.45	1.1795	18.553
0.32816	203.67	1.1792	18.687
0.32816	204.9	1.179	18.821
0.32816	206.12	1.1787	18.955
0.32816	207.35	1.1785	19.09
0.32816	208.57	1.1783	19.225
0.32816	209.8	1.178	19.361
0.32816	211.02	1.1778	19.496
0.32816	212.24	1.1775	19.632
0.32816	213.47	1.1773	19.767
0.32816	214.69	1.177	19.903
0.32816	215.92	1.1768	20.039
0.32816	217.14	1.1765	20.176
0.32816	218.37	1.1763	20.312
0.32816	219.59	1.176	20.449
0.32816	220.82	1.1757	20.587
0.32816	222.04	1.1755	20.725
0.32816	223.27	1.1752	20.863
0.32816	224.49	1.175	21.003
0.32816	225.71	1.1747	21.143
0.32816	226.94	1.1744	21.284
0.32816	228.16	1.1742	21.426
0.32816	229.39	1.1739	21.568
0.32816	230.61	1.1736	21.712
0.32816	231.84	1.1734	21.856
0.32816	233.06	1.1731	22.001
0.32816	234.29	1.1728	22.147
0.32816	235.51	1.1725	22.293
0.32816	236.73	1.1723	22.44
0.32816	237.96	1.172	22.587
0.32816	239.18	1.1717	22.735
0.32816	240.41	1.1714	22.884
0.32816	241.63	1.1711	23.032
0.32816	242.86	1.1709	23.181
0.32816	244.08	1.1706	23.33
0.32816	245.31	1.1703	23.478
0.32816	246.53	1.17	23.626
0.32816	247.76	1.1697	23.774
0.32816	248.98	1.1694	23.922
0.32816	250.2	1.1691	24.068
0.32816	251.43	1.1688	24.214
0.32816	252.65	1.1686	24.358
0.32816	253.88	1.1683	24.501
0.32816	255.1	1.168	24.642
0.32816	256.33	1.1677	24.781
0.32816	257.55	1.1674	24.918
0.32816	258.78	1.1671	25.052
0.32816	260	1.1668	25.184
0.33265	200	1.1804	18.239
0.33265	201.22	1.1802	18.37
0.33265	202.45	1.18	18.503
0.33265	203.67	1.1797	18.636
0.33265	204.9	1.1795	18.77
0.33265	206.12	1.1793	18.904
0.33265	207.35	1.179	19.038
0.33265	208.57	1.1788	19.173
0.33265	209.8	1.1785	19.308
0.33265	211.02	1.1783	19.443
0.33265	212.24	1.178	19.578
0.33265	213.47	1.1778	19.713
0.33265	214.69	1.1775	19.849
0.33265	215.92	1.1773	19.985
0.33265	217.14	1.177	20.12
0.33265	218.37	1.1768	20.256
0.33265	219.59	1.1765	20.393
0.33265	220.82	1.1763	20.53
0.33265	222.04	1.176	20.668
0.33265	223.27	1.1757	20.806
0.33265	224.49	1.1755	20.945
0.33265	225.71	1.1752	21.085
0.33265	226.94	1.1749	21.225
0.33265	228.16	1.1747	21.366
0.33265	229.39	1.1744	21.509
0.33265	230.61	1.1741	21.651
0.33265	231.84	1.1739	21.795
0.33265	233.06	1.1736	21.939
0.33265	234.29	1.1733	22.085
0.33265	235.51	1.1731	22.23
0.33265	236.73	1.1728	22.377
0.33265	237.96	1.1725	22.524
0.33265	239.18	1.1722	22.671
0.33265	240.41	1.172	22.819
0.33265	241.63	1.1717	22.967
0.33265	242.86	1.1714	23.115
0.33265	244.08	1.1711	23.263
0.33265	245.31	1.1708	23.412
0.33265	246.53	1.1705	23.559
0.33265	247.76	1.1702	23.707
0.33265	248.98	1.17	23.853
0.33265	250.2	1.1697	23.999
0.33265	251.43	1.1694	24.144
0.33265	252.65	1.1691	24.288
0.33265	253.88	1.1688	24.43
0.33265	255.1	1.1685	24.57
0.33265	256.33	1.1682	24.709
0.33265	257.55	1.1679	24.845
0.33265	258.78	1.1676	24.979
0.33265	260	1.1673	25.11
0.33714	200	1.1809	18.189
0.33714	201.22	1.1807	18.321
0.33714	202.45	1.1805	18.453
0.33714	203.67	1.1802	18.586
0.33714	204.9	1.18	18.719
0.33714	206.12	1.1798	18.853
0.33714	207.35	1.1795	18.987
0.33714	208.57	1.1793	19.121
0.33714	209.8	1.179	19.256
0.33714	211.02	1.1788	19.39
0.33714	212.24	1.1785	19.525
0.33714	213.47	1.1783	19.66
0.33714	214.69	1.178	19.795
0.33714	215.92	1.1778	19.93
0.33714	217.14	1.1775	20.065
0.33714	218.37	1.1773	20.201
0.33714	219.59	1.177	20.337
0.33714	220.82	1.1768	20.474
0.33714	222.04	1.1765	20.611
0.33714	223.27	1.1762	20.749
0.33714	224.49	1.176	20.887
0.33714	225.71	1.1757	21.026
0.33714	226.94	1.1755	21.166
0.33714	228.16	1.1752	21.307
0.33714	229.39	1.1749	21.449
0.33714	230.61	1.1747	21.591
0.33714	231.84	1.1744	21.734
0.33714	233.06	1.1741	21.878
0.33714	234.29	1.1739	22.023
0.33714	235.51	1.1736	22.168
0.33714	236.73	1.1733	22.314
0.33714	237.96	1.173	22.461
0.33714	239.18	1.1728	22.608
0.33714	240.41	1.1725	22.755
0.33714	241.63	1.1722	22.902
0.33714	242.86	1.1719	23.05
0.33714	244.08	1.1716	23.198
0.33714	245.31	1.1713	23.345
0.33714	246.53	1.1711	23.492
0.33714	247.76	1.1708	23.639
0.33714	248.98	1.1705	23.785
0.33714	250.2	1.1702	23.931
0.33714	251.43	1.1699	24.075
0.33714	252.65	1.1696	24.218
0.33714	253.88	1.1693	24.36
0.33714	255.1	1.169	24.499
0.33714	256.33	1.1687	24.637
0.33714	257.55	1.1684	24.773
0.33714	258.78	1.1681	24.906
0.33714	260	1.1678	25.037
0.34163	200	1.1814	18.141
0.34163	201.22	1.1812	18.272
0.34163	202.45	1.181	18.403
0.34163	203.67	1.1807	18.536
0.34163	204.9	1.1805	18.669
0.34163	206.12	1.1803	18.802
0.34163	207.35	1.18	18.936
0.34163	208.57	1.1798	19.069
0.34163	209.8	1.1795	19.204
0.34163	211.02	1.1793	19.338
0.34163	212.24	1.179	19.472
0.34163	213.47	1.1788	19.607
0.34163	214.69	1.1785	19.741
0.34163	215.92	1.1783	19.876
0.34163	217.14	1.178	20.011
0.34163	218.37	1.1778	20.146
0.34163	219.59	1.1775	20.282
0.34163	220.82	1.1773	20.418
0.34163	222.04	1.177	20.554
0.34163	223.27	1.1768	20.692
0.34163	224.49	1.1765	20.83
0.34163	225.71	1.1762	20.969
0.34163	226.94	1.176	21.108
0.34163	228.16	1.1757	21.249
0.34163	229.39	1.1754	21.39
0.34163	230.61	1.1752	21.532
0.34163	231.84	1.1749	21.674
0.34163	233.06	1.1746	21.818
0.34163	234.29	1.1744	21.962
0.34163	235.51	1.1741	22.107
0.34163	236.73	1.1738	22.252
0.34163	237.96	1.1735	22.398
0.34163	239.18	1.1733	22.545
0.34163	240.41	1.173	22.691
0.34163	241.63	1.1727	22.838
0.34163	242.86	1.1724	22.985
0.34163	244.08	1.1722	23.132
0.34163	245.31	1.1719	23.279
0.34163	246.53	1.1716	23.426
0.34163	247.76	1.1713	23.572
0.34163	248.98	1.171	23.718
0.34163	250.2	1.1707	23.863
0.34163	251.43	1.1704	24.006
0.34163	252.65	1.1701	24.149
0.34163	253.88	1.1698	24.29
0.34163	255.1	1.1696	24.429
0.34163	256.33	1.1693	24.566
0.34163	257.55	1.169	24.701
0.34163	258.78	1.1687	24.834
0.34163	260	1.1684	24.964
0.34612	200	1.1819	18.092
0.34612	201.22	1.1817	18.223
0.34612	202.45	1.1815	18.354
0.34612	203.67	1.1812	18.486
0.34612	204.9	1.181	18.618
0.34612	206.12	1.1808	18.751
0.34612	207.35	1.1805	18.885
0.34612	208.57	1.1803	19.018
0.34612	209.8	1.18	19.152
0.34612	211.02	1.1798	19.286
0.34612	212.24	1.1795	19.42
0.34612	213.47	1.1793	19.554
0.34612	214.69	1.1791	19.688
0.34612	215.92	1.1788	19.822
0.34612	217.14	1.1785	19.957
0.34612	218.37	1.1783	20.091
0.34612	219.59	1.178	20.227
0.34612	220.82	1.1778	20.362
0.34612	222.04	1.1775	20.498
0.34612	223.27	1.1773	20.635
0.34612	224.49	1.177	20.773
0.34612	225.71	1.1767	20.911
0.34612	226.94	1.1765	21.05
0.34612	228.16	1.1762	21.19
0.34612	229.39	1.176	21.331
0.34612	230.61	1.1757	21.472
0.34612	231.84	1.1754	21.615
0.34612	233.06	1.1752	21.757
0.34612	234.29	1.1749	21.901
0.34612	235.51	1.1746	22.045
0.34612	236.73	1.1743	22.19
0.34612	237.96	1.1741	22.336
0.34612	239.18	1.1738	22.482
0.34612	240.41	1.1735	22.628
0.34612	241.63	1.1732	22.774
0.34612	242.86	1.173	22.921
0.34612	244.08	1.1727	23.068
0.34612	245.31	1.1724	23.214
0.34612	246.53	1.1721	23.36
0.34612	247.76	1.1718	23.506
0.34612	248.98	1.1715	23.651
0.34612	250.2	1.1712	23.795
0.34612	251.43	1.171	23.938
0.34612	252.65	1.1707	24.08
0.34612	253.88	1.1704	24.22
0.34612	255.1	1.1701	24.359
0.34612	256.33	1.1698	24.496
0.34612	257.55	1.1695	24.63
0.34612	258.78	1.1692	24.762
0.34612	260	1.1689	24.891
0.35061	200	1.1824	18.044
0.35061	201.22	1.1822	18.174
0.35061	202.45	1.182	18.305
0.35061	203.67	1.1817	18.437
0.35061	204.9	1.1815	18.569
0.35061	206.12	1.1813	18.701
0.35061	207.35	1.181	18.834
0.35061	208.57	1.1808	18.967
0.35061	209.8	1.1805	19.101
0.35061	211.02	1.1803	19.234
0.35061	212.24	1.1801	19.367
0.35061	213.47	1.1798	19.501
0.35061	214.69	1.1796	19.635
0.35061	215.92	1.1793	19.769
0.35061	217.14	1.1791	19.903
0.35061	218.37	1.1788	20.037
0.35061	219.59	1.1785	20.172
0.35061	220.82	1.1783	20.307
0.35061	222.04	1.178	20.443
0.35061	223.27	1.1778	20.579
0.35061	224.49	1.1775	20.716
0.35061	225.71	1.1773	20.854
0.35061	226.94	1.177	20.993
0.35061	228.16	1.1767	21.132
0.35061	229.39	1.1765	21.272
0.35061	230.61	1.1762	21.413
0.35061	231.84	1.1759	21.555
0.35061	233.06	1.1757	21.698
0.35061	234.29	1.1754	21.841
0.35061	235.51	1.1751	21.985
0.35061	236.73	1.1749	22.129
0.35061	237.96	1.1746	22.274
0.35061	239.18	1.1743	22.419
0.35061	240.41	1.174	22.565
0.35061	241.63	1.1738	22.711
0.35061	242.86	1.1735	22.857
0.35061	244.08	1.1732	23.003
0.35061	245.31	1.1729	23.149
0.35061	246.53	1.1726	23.295
0.35061	247.76	1.1723	23.44
0.35061	248.98	1.1721	23.584
0.35061	250.2	1.1718	23.728
0.35061	251.43	1.1715	23.87
0.35061	252.65	1.1712	24.012
0.35061	253.88	1.1709	24.151
0.35061	255.1	1.1706	24.29
0.35061	256.33	1.1703	24.426
0.35061	257.55	1.17	24.559
0.35061	258.78	1.1697	24.691
0.35061	260	1.1694	24.819
0.3551	200	1.1829	17.996
0.3551	201.22	1.1827	18.126
0.3551	202.45	1.1825	18.256
0.3551	203.67	1.1822	18.387
0.3551	204.9	1.182	18.519
0.3551	206.12	1.1818	18.651
0.3551	207.35	1.1815	18.784
0.3551	208.57	1.1813	18.917
0.3551	209.8	1.181	19.049
0.3551	211.02	1.1808	19.182
0.3551	212.24	1.1806	19.316
0.3551	213.47	1.1803	19.449
0.3551	214.69	1.1801	19.582
0.3551	215.92	1.1798	19.715
0.3551	217.14	1.1796	19.849
0.3551	218.37	1.1793	19.983
0.3551	219.59	1.1791	20.117
0.3551	220.82	1.1788	20.252
0.3551	222.04	1.1785	20.387
0.3551	223.27	1.1783	20.523
0.3551	224.49	1.178	20.66
0.3551	225.71	1.1778	20.797
0.3551	226.94	1.1775	20.936
0.3551	228.16	1.1772	21.075
0.3551	229.39	1.177	21.214
0.3551	230.61	1.1767	21.355
0.3551	231.84	1.1765	21.496
0.3551	233.06	1.1762	21.638
0.3551	234.29	1.1759	21.781
0.3551	235.51	1.1756	21.924
0.3551	236.73	1.1754	22.068
0.3551	237.96	1.1751	22.212
0.3551	239.18	1.1748	22.357
0.3551	240.41	1.1745	22.503
0.3551	241.63	1.1743	22.648
0.3551	242.86	1.174	22.794
0.3551	244.08	1.1737	22.939
0.3551	245.31	1.1734	23.084
0.3551	246.53	1.1731	23.229
0.3551	247.76	1.1729	23.374
0.3551	248.98	1.1726	23.518
0.3551	250.2	1.1723	23.661
0.3551	251.43	1.172	23.803
0.3551	252.65	1.1717	23.944
0.3551	253.88	1.1714	24.083
0.3551	255.1	1.1711	24.22
0.3551	256.33	1.1708	24.356
0.3551	257.55	1.1705	24.489
0.3551	258.78	1.1702	24.62
0.3551	260	1.17	24.748
0.35959	200	1.1834	17.948
0.35959	201.22	1.1832	18.078
0.35959	202.45	1.183	18.208
0.35959	203.67	1.1827	18.339
0.35959	204.9	1.1825	18.47
0.35959	206.12	1.1823	18.602
0.35959	207.35	1.182	18.734
0.35959	208.57	1.1818	18.866
0.35959	209.8	1.1815	18.999
0.35959	211.02	1.1813	19.131
0.35959	212.24	1.1811	19.264
0.35959	213.47	1.1808	19.397
0.35959	214.69	1.1806	19.53
0.35959	215.92	1.1803	19.663
0.35959	217.14	1.1801	19.796
0.35959	218.37	1.1798	19.929
0.35959	219.59	1.1796	20.063
0.35959	220.82	1.1793	20.197
0.35959	222.04	1.1791	20.332
0.35959	223.27	1.1788	20.468
0.35959	224.49	1.1785	20.604
0.35959	225.71	1.1783	20.741
0.35959	226.94	1.178	20.879
0.35959	228.16	1.1778	21.017
0.35959	229.39	1.1775	21.156
0.35959	230.61	1.1772	21.297
0.35959	231.84	1.177	21.437
0.35959	233.06	1.1767	21.579
0.35959	234.29	1.1764	21.721
0.35959	235.51	1.1762	21.864
0.35959	236.73	1.1759	22.007
0.35959	237.96	1.1756	22.151
0.35959	239.18	1.1753	22.296
0.35959	240.41	1.1751	22.44
0.35959	241.63	1.1748	22.585
0.35959	242.86	1.1745	22.73
0.35959	244.08	1.1742	22.875
0.35959	245.31	1.1739	23.02
0.35959	246.53	1.1737	23.165
0.35959	247.76	1.1734	23.309
0.35959	248.98	1.1731	23.452
0.35959	250.2	1.1728	23.595
0.35959	251.43	1.1725	23.736
0.35959	252.65	1.1722	23.876
0.35959	253.88	1.1719	24.015
0.35959	255.1	1.1717	24.152
0.35959	256.33	1.1714	24.287
0.35959	257.55	1.1711	24.419
0.35959	258.78	1.1708	24.55
0.35959	260	1.1705	24.677
0.36408	200	1.1839	17.901
0.36408	201.22	1.1837	18.03
0.36408	202.45	1.1835	18.16
0.36408	203.67	1.1832	18.29
0.36408	204.9	1.183	18.421
0.36408	206.12	1.1828	18.552
0.36408	207.35	1.1825	18.684
0.36408	208.57	1.1823	18.816
0.36408	209.8	1.182	18.948
0.36408	211.02	1.1818	19.08
0.36408	212.24	1.1816	19.213
0.36408	213.47	1.1813	19.345
0.36408	214.69	1.1811	19.478
0.36408	215.92	1.1808	19.61
0.36408	217.14	1.1806	19.743
0.36408	218.37	1.1803	19.876
0.36408	219.59	1.1801	20.009
0.36408	220.82	1.1798	20.143
0.36408	222.04	1.1796	20.278
0.36408	223.27	1.1793	20.413
0.36408	224.49	1.179	20.548
0.36408	225.71	1.1788	20.685
0.36408	226.94	1.1785	20.822
0.36408	228.16	1.1783	20.96
0.36408	229.39	1.178	21.099
0.36408	230.61	1.1777	21.239
0.36408	231.84	1.1775	21.379
0.36408	233.06	1.1772	21.52
0.36408	234.29	1.1769	21.662
0.36408	235.51	1.1767	21.804
0.36408	236.73	1.1764	21.947
0.36408	237.96	1.1761	22.091
0.36408	239.18	1.1759	22.235
0.36408	240.41	1.1756	22.379
0.36408	241.63	1.1753	22.523
0.36408	242.86	1.175	22.668
0.36408	244.08	1.1747	22.812
0.36408	245.31	1.1745	22.956
0.36408	246.53	1.1742	23.1
0.36408	247.76	1.1739	23.244
0.36408	248.98	1.1736	23.387
0.36408	250.2	1.1733	23.529
0.36408	251.43	1.173	23.67
0.36408	252.65	1.1728	23.809
0.36408	253.88	1.1725	23.947
0.36408	255.1	1.1722	24.084
0.36408	256.33	1.1719	24.218
0.36408	257.55	1.1716	24.35
0.36408	258.78	1.1713	24.48
0.36408	260	1.171	24.606
0.36857	200	1.1844	17.854
0.36857	201.22	1.1842	17.983
0.36857	202.45	1.184	18.112
0.36857	203.67	1.1837	18.242
0.36857	204.9	1.1835	18.372
0.36857	206.12	1.1833	18.503
0.36857	207.35	1.183	18.635
0.36857	208.57	1.1828	18.766
0.36857	209.8	1.1825	18.898
0.36857	211.02	1.1823	19.03
0.36857	212.24	1.1821	19.162
0.36857	213.47	1.1818	19.294
0.36857	214.69	1.1816	19.426
0.36857	215.92	1.1813	19.558
0.36857	217.14	1.1811	19.69
0.36857	218.37	1.1808	19.823
0.36857	219.59	1.1806	19.956
0.36857	220.82	1.1803	20.089
0.36857	222.04	1.1801	20.223
0.36857	223.27	1.1798	20.358
0.36857	224.49	1.1795	20.493
0.36857	225.71	1.1793	20.629
0.36857	226.94	1.179	20.766
0.36857	228.16	1.1788	20.904
0.36857	229.39	1.1785	21.042
0.36857	230.61	1.1782	21.181
0.36857	231.84	1.178	21.321
0.36857	233.06	1.1777	21.462
0.36857	234.29	1.1774	21.603
0.36857	235.51	1.1772	21.745
0.36857	236.73	1.1769	21.887
0.36857	237.96	1.1766	22.03
0.36857	239.18	1.1764	22.174
0.36857	240.41	1.1761	22.317
0.36857	241.63	1.1758	22.461
0.36857	242.86	1.1755	22.605
0.36857	244.08	1.1753	22.749
0.36857	245.31	1.175	22.893
0.36857	246.53	1.1747	23.036
0.36857	247.76	1.1744	23.179
0.36857	248.98	1.1741	23.322
0.36857	250.2	1.1739	23.463
0.36857	251.43	1.1736	23.603
0.36857	252.65	1.1733	23.742
0.36857	253.88	1.173	23.88
0.36857	255.1	1.1727	24.016
0.36857	256.33	1.1724	24.15
0.36857	257.55	1.1721	24.281
0.36857	258.78	1.1718	24.41
0.36857	260	1.1715	24.536
0.37306	200	1.1849	17.807
0.37306	201.22	1.1847	17.935
0.37306	202.45	1.1845	18.064
0.37306	203.67	1.1842	18.194
0.37306	204.9	1.184	18.324
0.37306	206.12	1.1838	18.455
0.37306	207.35	1.1835	18.586
0.37306	208.57	1.1833	18.717
0.37306	209.8	1.183	18.848
0.37306	211.02	1.1828	18.98
0.37306	212.24	1.1826	19.111
0.37306	213.47	1.1823	19.243
0.37306	214.69	1.1821	19.374
0.37306	215.92	1.1818	19.506
0.37306	217.14	1.1816	19.638
0.37306	218.37	1.1813	19.77
0.37306	219.59	1.1811	19.903
0.37306	220.82	1.1808	20.036
0.37306	222.04	1.1806	20.169
0.37306	223.27	1.1803	20.303
0.37306	224.49	1.1801	20.438
0.37306	225.71	1.1798	20.574
0.37306	226.94	1.1795	20.71
0.37306	228.16	1.1793	20.847
0.37306	229.39	1.179	20.985
0.37306	230.61	1.1788	21.124
0.37306	231.84	1.1785	21.263
0.37306	233.06	1.1782	21.404
0.37306	234.29	1.178	21.544
0.37306	235.51	1.1777	21.686
0.37306	236.73	1.1774	21.828
0.37306	237.96	1.1771	21.97
0.37306	239.18	1.1769	22.113
0.37306	240.41	1.1766	22.256
0.37306	241.63	1.1763	22.4
0.37306	242.86	1.1761	22.543
0.37306	244.08	1.1758	22.687
0.37306	245.31	1.1755	22.83
0.37306	246.53	1.1752	22.973
0.37306	247.76	1.1749	23.115
0.37306	248.98	1.1747	23.257
0.37306	250.2	1.1744	23.398
0.37306	251.43	1.1741	23.538
0.37306	252.65	1.1738	23.676
0.37306	253.88	1.1735	23.813
0.37306	255.1	1.1732	23.949
0.37306	256.33	1.1729	24.082
0.37306	257.55	1.1726	24.213
0.37306	258.78	1.1723	24.341
0.37306	260	1.1721	24.467
0.37755	200	1.1854	17.761
0.37755	201.22	1.1852	17.888
0.37755	202.45	1.185	18.017
0.37755	203.67	1.1847	18.146
0.37755	204.9	1.1845	18.276
0.37755	206.12	1.1843	18.406
0.37755	207.35	1.184	18.537
0.37755	208.57	1.1838	18.668
0.37755	209.8	1.1835	18.799
0.37755	211.02	1.1833	18.93
0.37755	212.24	1.1831	19.061
0.37755	213.47	1.1828	19.192
0.37755	214.69	1.1826	19.323
0.37755	215.92	1.1823	19.454
0.37755	217.14	1.1821	19.586
0.37755	218.37	1.1818	19.718
0.37755	219.59	1.1816	19.85
0.37755	220.82	1.1813	19.982
0.37755	222.04	1.1811	20.115
0.37755	223.27	1.1808	20.249
0.37755	224.49	1.1806	20.384
0.37755	225.71	1.1803	20.519
0.37755	226.94	1.18	20.655
0.37755	228.16	1.1798	20.792
0.37755	229.39	1.1795	20.929
0.37755	230.61	1.1793	21.067
0.37755	231.84	1.179	21.206
0.37755	233.06	1.1787	21.346
0.37755	234.29	1.1785	21.486
0.37755	235.51	1.1782	21.627
0.37755	236.73	1.1779	21.769
0.37755	237.96	1.1777	21.911
0.37755	239.18	1.1774	22.053
0.37755	240.41	1.1771	22.196
0.37755	241.63	1.1768	22.339
0.37755	242.86	1.1766	22.482
0.37755	244.08	1.1763	22.625
0.37755	245.31	1.176	22.767
0.37755	246.53	1.1757	22.91
0.37755	247.76	1.1755	23.052
0.37755	248.98	1.1752	23.193
0.37755	250.2	1.1749	23.333
0.37755	251.43	1.1746	23.472
0.37755	252.65	1.1743	23.61
0.37755	253.88	1.174	23.747
0.37755	255.1	1.1737	23.882
0.37755	256.33	1.1735	24.014
0.37755	257.55	1.1732	24.145
0.37755	258.78	1.1729	24.273
0.37755	260	1.1726	24.398
0.38204	200	1.1859	17.714
0.38204	201.22	1.1857	17.842
0.38204	202.45	1.1855	17.97
0.38204	203.67	1.1852	18.099
0.38204	204.9	1.185	18.228
0.38204	206.12	1.1847	18.358
0.38204	207.35	1.1845	18.488
0.38204	208.57	1.1843	18.619
0.38204	209.8	1.184	18.749
0.38204	211.02	1.1838	18.88
0.38204	212.24	1.1836	19.011
0.38204	213.47	1.1833	19.141
0.38204	214.69	1.1831	19.272
0.38204	215.92	1.1828	19.403
0.38204	217.14	1.1826	19.534
0.38204	218.37	1.1823	19.666
0.38204	219.59	1.1821	19.797
0.38204	220.82	1.1818	19.929
0.38204	222.04	1.1816	20.062
0.38204	223.27	1.1813	20.195
0.38204	224.49	1.1811	20.329
0.38204	225.71	1.1808	20.464
0.38204	226.94	1.1805	20.6
0.38204	228.16	1.1803	20.736
0.38204	229.39	1.18	20.873
0.38204	230.61	1.1798	21.011
0.38204	231.84	1.1795	21.149
0.38204	233.06	1.1792	21.288
0.38204	234.29	1.179	21.428
0.38204	235.51	1.1787	21.569
0.38204	236.73	1.1784	21.71
0.38204	237.96	1.1782	21.851
0.38204	239.18	1.1779	21.993
0.38204	240.41	1.1776	22.135
0.38204	241.63	1.1774	22.278
0.38204	242.86	1.1771	22.42
0.38204	244.08	1.1768	22.563
0.38204	245.31	1.1765	22.705
0.38204	246.53	1.1762	22.847
0.38204	247.76	1.176	22.988
0.38204	248.98	1.1757	23.129
0.38204	250.2	1.1754	23.269
0.38204	251.43	1.1751	23.408
0.38204	252.65	1.1748	23.545
0.38204	253.88	1.1745	23.681
0.38204	255.1	1.1743	23.815
0.38204	256.33	1.174	23.947
0.38204	257.55	1.1737	24.077
0.38204	258.78	1.1734	24.205
0.38204	260	1.1731	24.33
0.38653	200	1.1864	17.668
0.38653	201.22	1.1862	17.795
0.38653	202.45	1.1859	17.923
0.38653	203.67	1.1857	18.052
0.38653	204.9	1.1855	18.181
0.38653	206.12	1.1852	18.31
0.38653	207.35	1.185	18.44
0.38653	208.57	1.1848	18.57
0.38653	209.8	1.1845	18.7
0.38653	211.02	1.1843	18.831
0.38653	212.24	1.184	18.961
0.38653	213.47	1.1838	19.091
0.38653	214.69	1.1836	19.222
0.38653	215.92	1.1833	19.352
0.38653	217.14	1.1831	19.483
0.38653	218.37	1.1828	19.614
0.38653	219.59	1.1826	19.745
0.38653	220.82	1.1823	19.877
0.38653	222.04	1.1821	20.009
0.38653	223.27	1.1818	20.142
0.38653	224.49	1.1816	20.276
0.38653	225.71	1.1813	20.41
0.38653	226.94	1.181	20.545
0.38653	228.16	1.1808	20.681
0.38653	229.39	1.1805	20.817
0.38653	230.61	1.1803	20.955
0.38653	231.84	1.18	21.093
0.38653	233.06	1.1797	21.231
0.38653	234.29	1.1795	21.371
0.38653	235.51	1.1792	21.511
0.38653	236.73	1.1789	21.651
0.38653	237.96	1.1787	21.792
0.38653	239.18	1.1784	21.934
0.38653	240.41	1.1781	22.075
0.38653	241.63	1.1779	22.217
0.38653	242.86	1.1776	22.359
0.38653	244.08	1.1773	22.501
0.38653	245.31	1.177	22.643
0.38653	246.53	1.1768	22.784
0.38653	247.76	1.1765	22.925
0.38653	248.98	1.1762	23.066
0.38653	250.2	1.1759	23.205
0.38653	251.43	1.1756	23.343
0.38653	252.65	1.1753	23.48
0.38653	253.88	1.1751	23.615
0.38653	255.1	1.1748	23.749
0.38653	256.33	1.1745	23.881
0.38653	257.55	1.1742	24.01
0.38653	258.78	1.1739	24.137
0.38653	260	1.1736	24.262
0.39102	200	1.1869	17.622
0.39102	201.22	1.1867	17.749
0.39102	202.45	1.1864	17.877
0.39102	203.67	1.1862	18.005
0.39102	204.9	1.186	18.133
0.39102	206.12	1.1857	18.262
0.39102	207.35	1.1855	18.392
0.39102	208.57	1.1853	18.522
0.39102	209.8	1.185	18.652
0.39102	211.02	1.1848	18.782
0.39102	212.24	1.1845	18.911
0.39102	213.47	1.1843	19.041
0.39102	214.69	1.1841	19.171
0.39102	215.92	1.1838	19.302
0.39102	217.14	1.1836	19.432
0.39102	218.37	1.1833	19.562
0.39102	219.59	1.1831	19.693
0.39102	220.82	1.1828	19.824
0.39102	222.04	1.1826	19.956
0.39102	223.27	1.1823	20.089
0.39102	224.49	1.1821	20.222
0.39102	225.71	1.1818	20.356
0.39102	226.94	1.1816	20.49
0.39102	228.16	1.1813	20.626
0.39102	229.39	1.181	20.762
0.39102	230.61	1.1808	20.899
0.39102	231.84	1.1805	21.036
0.39102	233.06	1.1802	21.175
0.39102	234.29	1.18	21.313
0.39102	235.51	1.1797	21.453
0.39102	236.73	1.1795	21.593
0.39102	237.96	1.1792	21.734
0.39102	239.18	1.1789	21.875
0.39102	240.41	1.1786	22.016
0.39102	241.63	1.1784	22.157
0.39102	242.86	1.1781	22.299
0.39102	244.08	1.1778	22.44
0.39102	245.31	1.1775	22.581
0.39102	246.53	1.1773	22.722
0.39102	247.76	1.177	22.863
0.39102	248.98	1.1767	23.002
0.39102	250.2	1.1764	23.141
0.39102	251.43	1.1761	23.279
0.39102	252.65	1.1759	23.415
0.39102	253.88	1.1756	23.55
0.39102	255.1	1.1753	23.684
0.39102	256.33	1.175	23.815
0.39102	257.55	1.1747	23.944
0.39102	258.78	1.1744	24.07
0.39102	260	1.1741	24.194
0.39551	200	1.1874	17.577
0.39551	201.22	1.1872	17.703
0.39551	202.45	1.1869	17.83
0.39551	203.67	1.1867	17.958
0.39551	204.9	1.1865	18.086
0.39551	206.12	1.1862	18.215
0.39551	207.35	1.186	18.344
0.39551	208.57	1.1858	18.474
0.39551	209.8	1.1855	18.603
0.39551	211.02	1.1853	18.733
0.39551	212.24	1.185	18.862
0.39551	213.47	1.1848	18.992
0.39551	214.69	1.1846	19.121
0.39551	215.92	1.1843	19.251
0.39551	217.14	1.1841	19.381
0.39551	218.37	1.1838	19.511
0.39551	219.59	1.1836	19.641
0.39551	220.82	1.1833	19.772
0.39551	222.04	1.1831	19.904
0.39551	223.27	1.1828	20.036
0.39551	224.49	1.1826	20.169
0.39551	225.71	1.1823	20.302
0.39551	226.94	1.1821	20.436
0.39551	228.16	1.1818	20.571
0.39551	229.39	1.1815	20.707
0.39551	230.61	1.1813	20.843
0.39551	231.84	1.181	20.98
0.39551	233.06	1.1808	21.118
0.39551	234.29	1.1805	21.257
0.39551	235.51	1.1802	21.396
0.39551	236.73	1.18	21.535
0.39551	237.96	1.1797	21.675
0.39551	239.18	1.1794	21.816
0.39551	240.41	1.1792	21.957
0.39551	241.63	1.1789	22.098
0.39551	242.86	1.1786	22.239
0.39551	244.08	1.1783	22.379
0.39551	245.31	1.1781	22.52
0.39551	246.53	1.1778	22.661
0.39551	247.76	1.1775	22.801
0.39551	248.98	1.1772	22.94
0.39551	250.2	1.1769	23.078
0.39551	251.43	1.1767	23.215
0.39551	252.65	1.1764	23.351
0.39551	253.88	1.1761	23.486
0.39551	255.1	1.1758	23.618
0.39551	256.33	1.1755	23.749
0.39551	257.55	1.1752	23.878
0.39551	258.78	1.1749	24.004
0.39551	260	1.1747	24.127
0.4	200	1.1879	17.532
0.4	201.22	1.1876	17.658
0.4	202.45	1.1874	17.784
0.4	203.67	1.1872	17.912
0.4	204.9	1.1869	18.04
0.4	206.12	1.1867	18.168
0.4	207.35	1.1865	18.297
0.4	208.57	1.1862	18.426
0.4	209.8	1.186	18.555
0.4	211.02	1.1858	18.684
0.4	212.24	1.1855	18.813
0.4	213.47	1.1853	18.943
0.4	214.69	1.185	19.072
0.4	215.92	1.1848	19.201
0.4	217.14	1.1846	19.331
0.4	218.37	1.1843	19.46
0.4	219.59	1.1841	19.59
0.4	220.82	1.1838	19.721
0.4	222.04	1.1836	19.852
0.4	223.27	1.1833	19.983
0.4	224.49	1.1831	20.116
0.4	225.71	1.1828	20.249
0.4	226.94	1.1826	20.382
0.4	228.16	1.1823	20.517
0.4	229.39	1.182	20.652
0.4	230.61	1.1818	20.788
0.4	231.84	1.1815	20.925
0.4	233.06	1.1813	21.062
0.4	234.29	1.181	21.2
0.4	235.51	1.1807	21.339
0.4	236.73	1.1805	21.478
0.4	237.96	1.1802	21.617
0.4	239.18	1.1799	21.757
0.4	240.41	1.1797	21.898
0.4	241.63	1.1794	22.038
0.4	242.86	1.1791	22.179
0.4	244.08	1.1788	22.319
0.4	245.31	1.1786	22.459
0.4	246.53	1.1783	22.599
0.4	247.76	1.178	22.739
0.4	248.98	1.1777	22.877
0.4	250.2	1.1775	23.015
0.4	251.43	1.1772	23.152
0.4	252.65	1.1769	23.287
0.4	253.88	1.1766	23.421
0.4	255.1	1.1763	23.554
0.4	256.33	1.176	23.684
0.4	257.55	1.1757	23.812
0.4	258.78	1.1755	23.938
0.4	260	1.1752	24.061
